# XDI/1.0
# Column.1: energy(ev)
# Column.2: fluorescence_emission(au)
# Element.symbol: Br
# Element.edge: K
# Mono.name: Si 2 2 0
# Mono.d_spacing: 1.92
# Beamline.name: FAME
# Sample.name: Gallium bromide solution in hydrothermal conditions: Ga3+ 0.017m, Br- 0.051m
# Sample.temperature: 420.0 +/- 0.1 K
# Sample.pressure: 300.0 +/- 0.5 bar
# Citation.doi:  https://doi.org/10.26302/SSHADE/EXPERIMENT_DT_20180710_001
# Citation.comments: Da Silva, CÃ©cile; Testemale, Denis; Hazemann, Jean-Louis; Proux, Olivier (2006): Br K edge XAS of gallium bromide solution in hydrothermal conditions at 300bars and between 300 and 650K. SSHADE/FAME (OSUG Data Center). Dataset/Spectral Data. https://doi.org/10.26302/SSHADE/EXPERIMENT_DT_20180710_001Schmitt, Bernard; Bollard, Philippe; Albert, Damien; Garenne, Alexandre; Bonal, Lydie; and the SSHADE partner's consortium (2018). SSHADE: 'Solid Spectroscopy Hosting Architecture of Databases and Expertise'. OSUG Data Center. Service/Database infrastructure. https://doi.org/10.26302/SSHADE
# ////
#---------
# energy(ev)	fluorescence_emission(au)
13304.300301	0.02421
13309.700301	0.02395
13314.700301	0.02372
13319.700301	0.02380
13324.900301	0.02368
13330.000302	0.02378
13335.000302	0.02376
13339.900302	0.02357
13345.000302	0.02352
13349.900302	0.02370
13355.000302	0.02381
13360.000302	0.02376
13365.000302	0.02401
13370.000302	0.02394
13375.000303	0.02436
13380.000303	0.02436
13384.900303	0.02463
13390.000303	0.02493
13395.000303	0.02526
13400.000303	0.02565
13405.000303	0.02627
13410.000303	0.02682
13414.900303	0.02759
13420.000304	0.02897
13424.900304	0.02982
13430.000304	0.03154
13434.900304	0.03345
13435.400304	0.03377
13435.900304	0.03411
13436.400304	0.03428
13436.900304	0.03447
13437.400304	0.03480
13437.900304	0.03502
13438.400304	0.03526
13438.900304	0.03553
13439.400304	0.03603
13439.900304	0.03631
13440.400304	0.03663
13440.900304	0.03702
13441.400304	0.03721
13441.900304	0.03780
13442.400304	0.03810
13442.900304	0.03836
13443.400304	0.03880
13443.900304	0.03900
13444.500304	0.03958
13444.900304	0.04009
13445.500304	0.04066
13445.900304	0.04098
13446.400304	0.04167
13446.900304	0.04191
13447.400304	0.04250
13447.900304	0.04320
13448.400304	0.04374
13448.900304	0.04428
13449.400304	0.04500
13449.900304	0.04563
13450.400304	0.04625
13450.900304	0.04720
13451.400304	0.04785
13451.900304	0.04871
13452.400304	0.04967
13452.900304	0.05061
13453.400304	0.05129
13453.900304	0.05239
13454.400304	0.05368
13454.900304	0.05460
13455.400304	0.05576
13455.900304	0.05682
13456.400304	0.05824
13456.900304	0.05948
13457.400304	0.06113
13457.900304	0.06264
13458.400304	0.06476
13458.900304	0.06633
13459.400304	0.06828
13459.900304	0.07038
13460.400304	0.07280
13460.900305	0.07537
13461.400305	0.07811
13461.900305	0.08124
13462.400305	0.08458
13462.900305	0.08822
13463.400305	0.09225
13463.900305	0.09641
13464.400305	0.10124
13464.900305	0.10653
13465.400305	0.11314
13465.900305	0.12031
13466.400305	0.12843
13466.900305	0.13793
13467.400305	0.14890
13467.900305	0.16184
13468.400305	0.17841
13468.900305	0.19761
13469.400305	0.22220
13469.900305	0.25515
13470.400305	0.29602
13470.900305	0.35470
13471.400305	0.43127
13471.900305	0.53806
13472.400305	0.67433
13473.000305	0.85626
13473.400305	1.02024
13473.900305	1.21728
13474.400305	1.39580
13474.900305	1.54090
13475.400305	1.64353
13475.900305	1.70660
13476.400305	1.74830
13476.900305	1.77310
13477.400305	1.78496
13477.900305	1.78781
13478.400305	1.77879
13478.900305	1.76140
13479.400305	1.73398
13479.900305	1.69298
13480.400305	1.64031
13480.900305	1.58563
13481.400305	1.52787
13481.900305	1.47098
13482.400305	1.42205
13482.900305	1.37937
13483.400305	1.34135
13483.900305	1.31382
13484.400305	1.29670
13484.900305	1.28625
13485.400305	1.28441
13485.900305	1.28886
13486.400305	1.29987
13486.900305	1.31463
13487.400305	1.33036
13487.900305	1.34979
13488.400305	1.36783
13488.900305	1.38913
13489.400305	1.40867
13489.900305	1.42610
13490.400305	1.44621
13490.900305	1.46538
13491.400305	1.48251
13492.000305	1.49769
13492.700305	1.51954
13494.500305	1.54884
13495.300305	1.55736
13496.200305	1.56203
13497.200305	1.56096
13498.100305	1.55899
13499.000305	1.55378
13500.000305	1.54540
13501.100305	1.53524
13502.100305	1.52332
13503.100305	1.51085
13504.200305	1.49517
13505.300306	1.48228
13506.400306	1.46943
13507.500306	1.45831
13508.600306	1.44771
13509.800306	1.43879
13511.000306	1.43090
13512.200306	1.42657
13513.400306	1.42477
13514.600306	1.42393
13515.900306	1.42310
13517.100306	1.42658
13518.300306	1.42915
13519.700306	1.43403
13521.000306	1.43935
13522.400306	1.44279
13523.700306	1.44576
13525.100306	1.44979
13526.400306	1.45190
13528.000306	1.45409
13529.400306	1.45504
13530.900306	1.45390
13532.300306	1.45337
13533.800306	1.45042
13535.300306	1.44738
13536.800306	1.44274
13538.400306	1.43755
13540.000306	1.43284
13541.600306	1.42797
13543.200306	1.42329
13544.800306	1.42006
13546.400306	1.41539
13548.100306	1.41375
13549.800307	1.41160
13551.400307	1.40971
13553.100307	1.40822
13554.900307	1.40860
13556.700307	1.40913
13558.400307	1.40989
13560.300307	1.41088
13562.100307	1.41257
13563.900307	1.41233
13565.800307	1.41394
13567.600307	1.41596
13569.600307	1.41767
13571.400307	1.41761
13573.400307	1.41685
13575.400307	1.41704
13577.300307	1.41603
13579.300307	1.41680
13581.300307	1.41599
13583.300307	1.41442
13585.300307	1.41423
13587.300307	1.41349
13589.500307	1.41150
13591.600307	1.41152
13593.700308	1.40897
13595.800308	1.41007
13598.100308	1.40849
13600.300308	1.40893
13602.400308	1.40750
13604.500308	1.40852
13606.800308	1.40834
13609.100308	1.40825
13611.400308	1.40893
13613.600308	1.40867
13615.900308	1.40730
13618.300308	1.40787
13620.600308	1.40724
13622.900308	1.40603
13625.200308	1.40657
13627.700308	1.40571
13630.100308	1.40557
13632.600308	1.40316
13635.000308	1.40358
13637.600309	1.40313
13640.000309	1.40269
13642.500309	1.40077
13645.000309	1.40024
13647.600309	1.40022
13650.200309	1.39864
13652.800309	1.39734
13655.400309	1.39731
13658.100309	1.39601
13660.600309	1.39616
13663.300309	1.39520
13666.000309	1.39380
13668.700309	1.39402
13671.400309	1.39421
13674.100309	1.39314
13677.000309	1.39226
13679.700309	1.39169
13682.400310	1.39159
13685.300310	1.39245
13688.100310	1.39183
13691.000310	1.38929
13693.800310	1.39051
13696.700310	1.38955
13699.700310	1.38984
13702.600310	1.38905
13705.600310	1.38682
13708.500310	1.38758
13711.600310	1.38574
13714.500310	1.38635
13717.500310	1.38536
13720.600310	1.38575
13723.600310	1.38520
13726.800311	1.38477
13729.800311	1.38402
13732.900311	1.38305
13736.100311	1.38259
13739.200311	1.38221
13742.300311	1.38108
13745.600311	1.38107
13748.800311	1.38029
13752.000311	1.37923
13755.200311	1.37764
13758.500311	1.37740
13761.800311	1.37727
13765.100311	1.37548
13768.500311	1.37576
13771.800312	1.37487
13775.100312	1.37428
13778.500312	1.37337
13781.900312	1.37285
13785.400312	1.37488
13788.800312	1.37375
13792.200312	1.37223
13795.700312	1.37135
13799.300312	1.37120
13802.700312	1.37132
13806.300312	1.37042
13809.800312	1.36882
13813.300312	1.36702
13816.900313	1.36640
13820.500313	1.36526
13824.200313	1.36425
13827.900313	1.36301
13831.500313	1.36262
13835.200313	1.36132
13838.900313	1.36165
13842.600313	1.36087
13846.400313	1.36054
13850.100313	1.35897
13853.800313	1.35807
13857.700313	1.35732
13861.400314	1.35756
13865.300314	1.35620
13869.200314	1.35481
13873.000314	1.35465
13876.900314	1.35424
13880.900314	1.35335
13884.800314	1.35148
13888.800314	1.35075
13892.600314	1.34929
13896.700314	1.34933
13900.700314	1.34873
13904.600315	1.34885
13908.800315	1.34756
13912.800315	1.34547
13916.900315	1.34505
13920.900315	1.34490
13924.900315	1.34346
13929.200315	1.34180
13933.400315	1.34072
13937.500315	1.33873
13941.800315	1.33845
13945.900315	1.33735
13950.300316	1.33703
13954.400316	1.33645
13958.700316	1.33556
13962.900316	1.33480
13967.300316	1.33354
13971.600316	1.33250
13975.900316	1.33219
13980.300316	1.33086
13984.600316	1.33025
13989.100316	1.32973
13993.500317	1.32755
13997.900317	1.32709
14002.400317	1.32648
14006.900317	1.32646
14011.600317	1.32521
14015.900317	1.32347
14020.400317	1.32278
14024.900317	1.32154
14029.500317	1.32156
14034.200317	1.32117
14038.700318	1.31971
14043.400318	1.31952
14047.900318	1.31773
14052.700318	1.31635
14057.300318	1.31678
14062.100318	1.31502
14066.800318	1.31446
14071.500318	1.31371
14076.300318	1.31253
14081.000319	1.31148
14085.900319	1.31096
14090.600319	1.30965
14095.600319	1.30947
14100.200319	1.30876
14105.200319	1.30777
14110.100319	1.30762
14115.100319	1.30546
14119.900319	1.30476
14124.900320	1.30390
14129.900320	1.30296
14134.800320	1.30253
14139.800320	1.30214
14144.900320	1.30107
14149.900320	1.30027
14154.900320	1.29877
14160.000320	1.29751
14165.000320	1.29677
14170.200321	1.29561
14175.300321	1.29458
14180.600321	1.29369
14185.700321	1.29212
14191.000321	1.29183
14196.000321	1.29167
14201.300321	1.29067
14206.400321	1.28969
14211.900321	1.28890
14217.000322	1.28705
14222.500322	1.28742
14227.600322	1.28683
14233.100322	1.28439
14238.400322	1.28428
14243.900322	1.28407
14249.200322	1.28240
14254.700322	1.28084
14260.000323	1.28105
14265.600323	1.27954
14270.800323	1.27790
14276.500323	1.27694
14282.000323	1.27725
14287.600323	1.27599
14293.000323	1.27464
14298.700323	1.27336
14304.400324	1.27212
14309.900324	1.27156
14315.500324	1.27075
14321.100324	1.26931
14326.900324	1.26737
14332.500324	1.26683
14338.200324	1.26601
14344.000324	1.26512
14349.600325	1.26411
14355.300325	1.26286
14361.200325	1.26234
14367.000325	1.26025
14372.900325	1.25906
14378.600325	1.25977
14384.600325	1.25784
14390.400326	1.25773
14396.300326	1.25701
14402.200326	1.25535
14408.100326	1.25412
14414.000326	1.25391
14419.900326	1.25283
14426.100326	1.25111
14431.900326	1.25045
14438.100327	1.24976
14444.000327	1.24758
