# XDI/1.0
# Column.1: energy(ev)
# Column.2: fluorescence_emission(au)
# Element.symbol: Br
# Element.edge: K
# Mono.name: Si 2 2 0
# Mono.d_spacing: 1.92
# Beamline.name: FAME
# Sample.name: Gallium bromide solution in hydrothermal conditions: Ga3+ 0.017m, Br- 0.051m
# Sample.temperature: 470.0 +/- 0.1 K
# Sample.pressure: 300.0 +/- 0.5 bar
# Citation.doi:  https://doi.org/10.26302/SSHADE/EXPERIMENT_DT_20180710_001
# Citation.comments: Da Silva, CÃ©cile; Testemale, Denis; Hazemann, Jean-Louis; Proux, Olivier (2006): Br K edge XAS of gallium bromide solution in hydrothermal conditions at 300bars and between 300 and 650K. SSHADE/FAME (OSUG Data Center). Dataset/Spectral Data. https://doi.org/10.26302/SSHADE/EXPERIMENT_DT_20180710_001Schmitt, Bernard; Bollard, Philippe; Albert, Damien; Garenne, Alexandre; Bonal, Lydie; and the SSHADE partner's consortium (2018). SSHADE: 'Solid Spectroscopy Hosting Architecture of Databases and Expertise'. OSUG Data Center. Service/Database infrastructure. https://doi.org/10.26302/SSHADE
# ////
#---------
# energy(ev)	fluorescence_emission(au)
13304.300301	0.02327
13309.700301	0.02331
13314.700301	0.02326
13319.700301	0.02327
13325.000301	0.02300
13329.900302	0.02275
13335.000302	0.02296
13339.900302	0.02273
13345.000302	0.02276
13349.800302	0.02292
13355.000302	0.02289
13359.900302	0.02282
13364.900302	0.02292
13370.000302	0.02329
13375.000303	0.02344
13379.900303	0.02348
13384.900303	0.02360
13390.000303	0.02385
13394.900303	0.02431
13400.000303	0.02484
13404.900303	0.02535
13410.100303	0.02614
13414.900303	0.02682
13420.000304	0.02769
13424.900304	0.02879
13430.000304	0.03061
13434.900304	0.03257
13435.400304	0.03262
13435.900304	0.03293
13436.400304	0.03303
13436.900304	0.03347
13437.400304	0.03369
13437.900304	0.03390
13438.400304	0.03421
13438.900304	0.03452
13439.400304	0.03471
13439.900304	0.03488
13440.400304	0.03549
13440.900304	0.03574
13441.400304	0.03622
13441.900304	0.03647
13442.400304	0.03674
13442.900304	0.03709
13443.400304	0.03771
13444.000304	0.03784
13444.400304	0.03848
13445.000304	0.03876
13445.500304	0.03919
13445.900304	0.03963
13446.400304	0.04011
13446.900304	0.04072
13447.400304	0.04121
13447.900304	0.04173
13448.400304	0.04222
13448.900304	0.04258
13449.400304	0.04326
13449.900304	0.04407
13450.400304	0.04460
13450.900304	0.04541
13451.400304	0.04622
13451.900304	0.04714
13452.400304	0.04795
13452.900304	0.04851
13453.400304	0.04976
13453.900304	0.05057
13454.400304	0.05162
13454.900304	0.05266
13455.400304	0.05375
13455.900304	0.05499
13456.400304	0.05620
13456.900304	0.05757
13457.400304	0.05917
13457.900304	0.06070
13458.500304	0.06249
13458.900304	0.06397
13459.400304	0.06598
13459.900304	0.06817
13460.400304	0.07047
13460.900305	0.07281
13461.400305	0.07550
13461.900305	0.07852
13462.400305	0.08198
13462.900305	0.08499
13463.400305	0.08930
13463.900305	0.09340
13464.400305	0.09797
13464.900305	0.10322
13465.400305	0.10925
13465.900305	0.11638
13466.400305	0.12419
13466.900305	0.13363
13467.400305	0.14449
13467.900305	0.15774
13468.400305	0.17336
13468.900305	0.19216
13469.400305	0.21677
13469.900305	0.24855
13470.400305	0.29016
13470.900305	0.34765
13471.400305	0.42649
13471.900305	0.53466
13472.400305	0.66925
13472.900305	0.83129
13473.400305	1.00543
13473.900305	1.19324
13474.400305	1.36061
13474.900305	1.49638
13475.400305	1.59140
13475.900305	1.65621
13476.400305	1.69605
13476.900305	1.72186
13477.400305	1.73394
13477.900305	1.73866
13478.400305	1.73127
13478.900305	1.71424
13479.400305	1.68554
13479.900305	1.64546
13480.400305	1.59890
13480.900305	1.54635
13481.400305	1.49517
13481.900305	1.44040
13482.500305	1.39109
13482.900305	1.35642
13483.400305	1.32526
13483.900305	1.29884
13484.400305	1.28373
13484.900305	1.27574
13485.400305	1.27479
13485.900305	1.28044
13486.400305	1.29019
13486.900305	1.30194
13487.400305	1.31808
13487.900305	1.33441
13488.400305	1.35161
13488.900305	1.37124
13489.400305	1.38754
13489.900305	1.40491
13490.400305	1.42194
13490.900305	1.43912
13491.400305	1.45341
13491.900305	1.46763
13492.800305	1.48861
13494.500305	1.51273
13495.400305	1.51912
13496.200305	1.52364
13497.200305	1.52354
13498.100305	1.52232
13499.100305	1.51712
13500.100305	1.50898
13501.100305	1.50011
13502.100305	1.48958
13503.100305	1.47769
13504.200305	1.46627
13505.300306	1.45398
13506.400306	1.44223
13507.500306	1.43176
13508.600306	1.42072
13509.800306	1.41327
13511.000306	1.40642
13512.200306	1.40148
13513.400306	1.39923
13514.600306	1.39839
13515.900306	1.39906
13517.100306	1.40173
13518.300306	1.40391
13519.700306	1.40833
13521.000306	1.41171
13522.400306	1.41576
13523.700306	1.41821
13525.100306	1.42171
13526.500306	1.42355
13527.900306	1.42389
13529.400306	1.42601
13530.900306	1.42362
13532.400306	1.42237
13533.800306	1.42027
13535.300306	1.41705
13536.900306	1.41346
13538.300306	1.41025
13540.000306	1.40457
13541.600306	1.40077
13543.200306	1.39627
13544.800306	1.39236
13546.400306	1.39059
13548.100306	1.38718
13549.800307	1.38528
13551.400307	1.38480
13553.200307	1.38418
13554.900307	1.38191
13556.600307	1.38301
13558.400307	1.38391
13560.300307	1.38453
13562.100307	1.38575
13563.900307	1.38651
13565.800307	1.38802
13567.600307	1.39010
13569.600307	1.39013
13571.500307	1.39047
13573.300307	1.39131
13575.400307	1.39092
13577.200307	1.39102
13579.300307	1.38983
13581.300307	1.38926
13583.300307	1.38819
13585.300307	1.38699
13587.400307	1.38594
13589.500307	1.38500
13591.600307	1.38465
13593.700308	1.38431
13595.800308	1.38441
13598.000308	1.38471
13600.200308	1.38356
13602.500308	1.38365
13604.600308	1.38325
13606.800308	1.38438
13609.100308	1.38430
13611.400308	1.38352
13613.600308	1.38409
13615.900308	1.38369
13618.300308	1.38335
13620.600308	1.38260
13623.000308	1.38198
13625.300308	1.38069
13627.800308	1.38083
13630.100308	1.38071
13632.600308	1.37878
13635.000308	1.37838
13637.600309	1.37748
13640.000309	1.37769
13642.500309	1.37689
13645.000309	1.37587
13647.600309	1.37519
13650.100309	1.37414
13652.800309	1.37283
13655.400309	1.37315
13658.100309	1.37282
13660.700309	1.37153
13663.300309	1.37186
13666.000309	1.37099
13668.700309	1.37128
13671.400309	1.37050
13674.100309	1.36949
13676.900309	1.36930
13679.700309	1.36818
13682.400310	1.36680
13685.200310	1.36621
13688.200310	1.36603
13691.000310	1.36537
13693.800310	1.36594
13696.800310	1.36585
13699.600310	1.36537
13702.500310	1.36532
13705.500310	1.36493
13708.600310	1.36396
13711.600310	1.36385
13714.500310	1.36347
13717.600310	1.36276
13720.600310	1.36200
13723.600310	1.36252
13726.800311	1.36131
13729.800311	1.36116
13732.900311	1.36006
13736.000311	1.36031
13739.200311	1.35983
13742.400311	1.35928
13745.600311	1.35897
13748.800311	1.35807
13752.000311	1.35706
13755.200311	1.35734
13758.500311	1.35689
13761.800311	1.35557
13765.100311	1.35517
13768.500311	1.35479
13771.800312	1.35404
13775.200312	1.35175
13778.600312	1.35020
13781.900312	1.34964
13785.400312	1.34954
13788.800312	1.34951
13792.100312	1.34922
13795.700312	1.34904
13799.200312	1.34766
13802.700312	1.34794
13806.300312	1.34637
13809.800312	1.34565
13813.300312	1.34386
13816.900313	1.34448
13820.500313	1.34308
13824.100313	1.34271
13827.900313	1.34262
13831.500313	1.34153
13835.200313	1.34145
13838.900313	1.34039
13842.600313	1.33892
13846.400313	1.33809
13850.100313	1.33767
13853.700313	1.33741
13857.700313	1.33621
13861.500314	1.33650
13865.300314	1.33497
13869.100314	1.33326
13873.000314	1.33354
13876.900314	1.33277
13880.900314	1.33212
13884.800314	1.33162
13888.800314	1.32941
13892.700314	1.32943
13896.700314	1.32866
13900.700314	1.32694
13904.600315	1.32632
13908.800315	1.32527
13912.800315	1.32409
13916.900315	1.32353
13920.900315	1.32274
13925.000315	1.32172
13929.200315	1.32160
13933.300315	1.32082
13937.600315	1.32000
13941.800315	1.31906
13946.000315	1.31730
13950.300316	1.31702
13954.400316	1.31587
13958.700316	1.31471
13962.900316	1.31440
13967.200316	1.31311
13971.600316	1.31452
13975.900316	1.31223
13980.300316	1.31080
13984.700316	1.31074
13989.000316	1.30915
13993.500317	1.30839
13997.900317	1.30750
14002.400317	1.30611
14006.900317	1.30671
14011.500317	1.30555
14015.900317	1.30535
14020.400317	1.30439
14024.900317	1.30277
14029.500317	1.30267
14034.100317	1.30191
14038.700318	1.30061
14043.400318	1.29904
14047.900318	1.29868
14052.700318	1.29784
14057.300318	1.29649
14062.100318	1.29672
14066.800318	1.29562
14071.600318	1.29490
14076.300318	1.29418
14081.000319	1.29183
14085.900319	1.29039
14090.500319	1.29022
14095.500319	1.29252
14100.200319	1.29165
14105.200319	1.29107
14110.100319	1.28974
14115.000319	1.28972
14120.000319	1.28888
14124.900320	1.28874
14129.800320	1.28705
14134.800320	1.28572
14139.800320	1.28460
14144.900320	1.28468
14149.900320	1.28298
14154.900320	1.28265
14160.000320	1.28209
14165.000320	1.28098
14170.200321	1.28017
14175.300321	1.27845
14180.600321	1.27787
14185.700321	1.27810
14191.000321	1.27606
14196.000321	1.27481
14201.300321	1.27489
14206.500321	1.27427
14211.900321	1.27212
14217.100322	1.27241
14222.500322	1.27214
14227.700322	1.27113
14233.100322	1.27002
14238.400322	1.26904
14243.900322	1.26837
14249.200322	1.26711
14254.700322	1.26599
14260.000323	1.26592
14265.600323	1.26476
14270.900323	1.26319
14276.500323	1.26194
14282.000323	1.26194
14287.600323	1.26098
14293.000323	1.26019
14298.700323	1.25825
14304.300324	1.25640
14309.900324	1.25643
14315.500324	1.25606
14321.200324	1.25408
14326.800324	1.25339
14332.400324	1.25196
14338.200324	1.25160
14344.000324	1.25081
14349.600325	1.24803
14355.400325	1.24801
14361.200325	1.24730
14367.000325	1.24409
14372.900325	1.24275
14378.600325	1.24185
14384.600325	1.24141
14390.300326	1.24055
14396.300326	1.23977
14402.200326	1.24003
14408.200326	1.23914
14414.000326	1.23778
14420.000326	1.23705
14426.100326	1.23545
14432.000326	1.23565
14438.100327	1.23372
14444.000327	1.23333
