# XDI/1.0
# Column.1: energy(ev)
# Column.2: fluorescence_emission(au)
# Element.symbol: Fe
# Element.edge: K
# Mono.name: Si 2 2 0
# Mono.d_spacing: 1.92
# Beamline.name: FAME
# Sample.name: Frozen solution of FeSO4
# Sample.temperature: 15.0 +/- 3.0 K
# Sample.pressure: None
# Citation.doi:  https://doi.org/10.26302/SSHADE/EXPERIMENT_FS_20201007_002
# Citation.comments: Stellato, Francesco; Morante, Silvia; Proux, Olivier; Consalvi, Valerio (2020): Fe K edge XAS fluorescence of FeSO4 in buffer for the study of the Iron binding site in the mature and C-terminal regions of wild-type and mutant human frataxin.. SSHADE/FAME (OSUG Data Center). Dataset/Spectral Data. https://doi.org/10.26302/SSHADE/EXPERIMENT_FS_20201007_002Schmitt, Bernard; Bollard, Philippe; Albert, Damien; Garenne, Alexandre; Bonal, Lydie; and the SSHADE partner's consortium (2018). SSHADE: 'Solid Spectroscopy Hosting Architecture of Databases and Expertise'. OSUG Data Center. Service/Database infrastructure. https://doi.org/10.26302/SSHADE
# ////
#---------
# energy(ev)	fluorescence_emission(au)
7009.370000	0.00209
7014.470000	0.00203
7019.690000	0.00197
7025.000000	0.00194
7030.010000	0.00186
7034.990000	0.00182
7040.010000	0.00177
7045.030000	0.00176
7050.030000	0.00172
7055.040000	0.00170
7060.010000	0.00168
7065.020000	0.00165
7070.030000	0.00163
7075.030000	0.00162
7080.020000	0.00161
7085.020000	0.00157
7090.020000	0.00155
7095.030000	0.00155
7100.030000	0.00153
7100.440000	0.00153
7100.680000	0.00155
7100.960000	0.00154
7101.240000	0.00154
7101.550000	0.00153
7101.860000	0.00153
7102.140000	0.00153
7102.450000	0.00156
7102.760000	0.00154
7103.060000	0.00154
7103.350000	0.00153
7103.650000	0.00152
7103.950000	0.00154
7104.240000	0.00154
7104.550000	0.00154
7104.840000	0.00155
7105.160000	0.00155
7105.470000	0.00154
7105.750000	0.00155
7106.050000	0.00154
7106.370000	0.00154
7106.650000	0.00155
7106.950000	0.00155
7107.250000	0.00153
7107.540000	0.00154
7107.860000	0.00155
7108.170000	0.00153
7108.440000	0.00154
7108.750000	0.00155
7109.060000	0.00155
7109.340000	0.00155
7109.650000	0.00154
7109.960000	0.00153
7110.260000	0.00155
7110.560000	0.00157
7110.860000	0.00156
7111.160000	0.00157
7111.450000	0.00156
7111.750000	0.00158
7112.040000	0.00159
7112.350000	0.00164
7112.670000	0.00164
7112.950000	0.00165
7113.250000	0.00167
7113.560000	0.00171
7113.840000	0.00174
7114.140000	0.00177
7114.460000	0.00175
7114.750000	0.00178
7115.060000	0.00180
7115.370000	0.00180
7115.650000	0.00178
7115.960000	0.00178
7116.260000	0.00175
7116.540000	0.00176
7116.840000	0.00176
7117.160000	0.00177
7117.460000	0.00179
7117.750000	0.00179
7118.060000	0.00181
7118.340000	0.00183
7118.650000	0.00184
7118.950000	0.00191
7119.250000	0.00195
7119.550000	0.00197
7119.870000	0.00204
7120.160000	0.00212
7120.460000	0.00221
7120.770000	0.00230
7121.050000	0.00236
7121.350000	0.00247
7121.650000	0.00259
7121.940000	0.00269
7122.260000	0.00282
7122.570000	0.00296
7122.850000	0.00311
7123.150000	0.00326
7123.460000	0.00340
7123.740000	0.00361
7124.050000	0.00383
7124.360000	0.00406
7124.650000	0.00427
7124.970000	0.00449
7125.270000	0.00467
7125.560000	0.00494
7125.860000	0.00510
7126.160000	0.00532
7126.440000	0.00554
7126.740000	0.00573
7127.070000	0.00593
7127.360000	0.00608
7127.650000	0.00623
7127.960000	0.00643
7128.250000	0.00657
7128.550000	0.00669
7128.860000	0.00684
7129.150000	0.00693
7129.450000	0.00706
7129.780000	0.00713
7130.060000	0.00720
7130.360000	0.00725
7130.670000	0.00731
7130.950000	0.00737
7131.250000	0.00738
7131.550000	0.00740
7131.850000	0.00740
7132.170000	0.00735
7132.460000	0.00734
7132.750000	0.00735
7133.050000	0.00735
7133.360000	0.00731
7133.640000	0.00732
7133.960000	0.00727
7134.260000	0.00721
7134.560000	0.00719
7134.860000	0.00715
7135.170000	0.00708
7135.450000	0.00705
7135.750000	0.00704
7136.060000	0.00701
7136.340000	0.00701
7136.640000	0.00695
7136.980000	0.00692
7137.250000	0.00692
7137.550000	0.00688
7137.870000	0.00686
7138.150000	0.00684
7138.450000	0.00681
7138.760000	0.00678
7139.040000	0.00672
7139.360000	0.00669
7139.680000	0.00659
7140.620000	0.00651
7142.730000	0.00617
7143.930000	0.00604
7145.040000	0.00594
7146.110000	0.00582
7147.260000	0.00570
7148.420000	0.00560
7149.630000	0.00548
7150.810000	0.00535
7152.030000	0.00525
7153.250000	0.00517
7154.550000	0.00508
7155.800000	0.00504
7157.090000	0.00503
7158.390000	0.00500
7159.760000	0.00503
7161.080000	0.00504
7162.460000	0.00508
7163.830000	0.00513
7165.280000	0.00520
7166.670000	0.00526
7168.110000	0.00533
7169.610000	0.00543
7171.060000	0.00551
7172.570000	0.00560
7174.100000	0.00569
7175.640000	0.00576
7177.180000	0.00584
7178.760000	0.00587
7180.390000	0.00588
7181.980000	0.00587
7183.590000	0.00585
7185.290000	0.00584
7186.930000	0.00584
7188.590000	0.00586
7190.360000	0.00584
7192.060000	0.00580
7193.770000	0.00573
7195.580000	0.00569
7197.350000	0.00567
7199.190000	0.00564
7200.960000	0.00564
7202.840000	0.00561
7204.700000	0.00560
7206.550000	0.00554
7208.440000	0.00553
7210.400000	0.00549
7212.310000	0.00550
7214.270000	0.00548
7216.220000	0.00547
7218.230000	0.00546
7220.270000	0.00544
7222.270000	0.00547
7224.320000	0.00544
7226.380000	0.00545
7228.480000	0.00544
7230.610000	0.00542
7232.710000	0.00544
7234.860000	0.00542
7237.010000	0.00541
7239.180000	0.00544
7241.390000	0.00544
7243.610000	0.00545
7245.860000	0.00546
7248.100000	0.00546
7250.400000	0.00549
7252.670000	0.00551
7254.990000	0.00550
7257.320000	0.00553
7259.670000	0.00554
7262.040000	0.00555
7264.410000	0.00554
7266.850000	0.00555
7269.260000	0.00556
7271.730000	0.00556
7274.180000	0.00554
7276.680000	0.00553
7279.180000	0.00552
7281.680000	0.00548
7284.240000	0.00547
7286.800000	0.00548
7289.350000	0.00543
7291.980000	0.00541
7294.560000	0.00542
7297.220000	0.00538
7299.850000	0.00535
7302.540000	0.00534
7305.210000	0.00533
7307.940000	0.00532
7310.650000	0.00531
7313.420000	0.00533
7316.170000	0.00532
7318.980000	0.00530
7321.770000	0.00530
7324.580000	0.00532
7327.420000	0.00530
7330.280000	0.00529
7333.180000	0.00528
7336.040000	0.00529
7338.990000	0.00526
7341.900000	0.00525
7344.880000	0.00526
7347.840000	0.00527
7350.840000	0.00528
7353.850000	0.00522
7356.870000	0.00522
7359.930000	0.00525
7362.970000	0.00523
7366.110000	0.00521
7369.190000	0.00522
7372.300000	0.00520
7375.460000	0.00519
7378.600000	0.00518
7381.820000	0.00521
7385.020000	0.00519
7388.240000	0.00519
7391.490000	0.00518
7394.720000	0.00520
7398.030000	0.00517
7401.290000	0.00517
7404.610000	0.00517
7407.950000	0.00514
7411.300000	0.00514
7414.670000	0.00511
7418.050000	0.00510
7421.430000	0.00510
7424.940000	0.00508
7428.300000	0.00507
7431.800000	0.00507
7435.300000	0.00506
7438.760000	0.00507
7442.280000	0.00504
7445.810000	0.00503
7449.350000	0.00503
7452.930000	0.00502
7456.530000	0.00501
7460.140000	0.00501
7463.780000	0.00500
7467.440000	0.00498
7471.100000	0.00499
7474.790000	0.00499
7478.520000	0.00498
7482.230000	0.00497
7485.960000	0.00496
7489.770000	0.00497
7493.540000	0.00495
7497.320000	0.00495
7501.180000	0.00491
7505.000000	0.00493
7508.850000	0.00493
7512.750000	0.00490
7516.650000	0.00491
7520.550000	0.00490
7524.480000	0.00489
7528.470000	0.00489
7532.420000	0.00488
7536.400000	0.00489
7540.440000	0.00487
7544.470000	0.00484
7548.510000	0.00486
7552.550000	0.00484
7556.680000	0.00484
7560.780000	0.00482
7564.890000	0.00483
7569.040000	0.00482
7573.230000	0.00482
7577.380000	0.00480
7581.580000	0.00480
7585.790000	0.00479
7590.070000	0.00479
7594.290000	0.00479
7598.560000	0.00478
7602.860000	0.00476
7607.200000	0.00475
7611.510000	0.00475
7615.870000	0.00475
7620.220000	0.00474
7624.660000	0.00474
7629.040000	0.00475
7633.450000	0.00474
7637.900000	0.00472
7642.370000	0.00472
7646.880000	0.00471
7651.350000	0.00472
7655.870000	0.00471
7660.410000	0.00470
7665.000000	0.00471
7669.570000	0.00472
7674.130000	0.00471
7678.790000	0.00469
7683.350000	0.00468
7688.110000	0.00467
7692.700000	0.00468
7697.410000	0.00467
7702.110000	0.00467
7706.840000	0.00466
7711.590000	0.00464
7716.400000	0.00465
7721.130000	0.00464
7725.940000	0.00464
7730.770000	0.00463
7735.600000	0.00463
7740.490000	0.00463
7745.360000	0.00463
7750.220000	0.00461
7755.160000	0.00461
7760.100000	0.00460
7765.040000	0.00462
7770.050000	0.00461
7775.040000	0.00460
7780.020000	0.00461
7785.070000	0.00459
7790.120000	0.00458
7795.170000	0.00459
7800.290000	0.00457
7805.380000	0.00457
7810.500000	0.00456
7815.630000	0.00456
7820.810000	0.00454
7826.000000	0.00455
7831.190000	0.00455
7836.440000	0.00453
7841.670000	0.00453
7846.930000	0.00452
7852.170000	0.00452
7857.490000	0.00451
7862.800000	0.00450
7868.140000	0.00450
7873.490000	0.00450
7878.860000	0.00449
7884.260000	0.00448
7889.640000	0.00448
7895.050000	0.00448
7900.520000	0.00447
7905.980000	0.00447
7911.460000	0.00447
7916.920000	0.00447
7922.470000	0.00447
7927.990000	0.00445
7933.530000	0.00446
7939.100000	0.00444
7944.700000	0.00445
7950.330000	0.00444
7955.970000	0.00443
