# XDI/1.0
# Column.1: energy(ev)
# Column.2: fluorescence_emission(au)
# Element.symbol: Ga
# Element.edge: K
# Mono.name: Si 2 2 0
# Mono.d_spacing: 1.92
# Beamline.name: FAME
# Sample.name: Gallium bromide solution in hydrothermal conditions: Ga3+ 0.17m, Br- 0.51m
# Sample.temperature: 650.0 +/- 0.1 K
# Sample.pressure: 300.0 +/- 0.5 bar
# Citation.doi:  https://doi.org/10.26302/SSHADE/EXPERIMENT_DT_20180710_002
# Citation.comments: Da Silva, CÃ©cile; Testemale, Denis; Hazemann, Jean-Louis; Proux, Olivier (2006): Ga K edge XAS fluorescence of gallium bromide solution in hydrothermal conditions at 300bars and between 300 and 670K. SSHADE/FAME (OSUG Data Center). Dataset/Spectral Data. https://doi.org/10.26302/SSHADE/EXPERIMENT_DT_20180710_002Schmitt, Bernard; Bollard, Philippe; Albert, Damien; Garenne, Alexandre; Bonal, Lydie; and the SSHADE partner's consortium (2018). SSHADE: 'Solid Spectroscopy Hosting Architecture of Databases and Expertise'. OSUG Data Center. Service/Database infrastructure. https://doi.org/10.26302/SSHADE
# ////
#---------
# energy(ev)	fluorescence_emission(au)
10229.600231	0.02031
10234.800232	0.02007
10240.000232	0.01985
10245.000232	0.01945
10250.000232	0.01931
10254.900232	0.01896
10260.000232	0.01861
10265.000232	0.01846
10270.000232	0.01839
10275.000232	0.01806
10280.000233	0.01785
10285.000233	0.01773
10290.000233	0.01756
10295.000233	0.01743
10300.000233	0.01737
10305.000233	0.01739
10310.000233	0.01725
10315.000233	0.01711
10320.000233	0.01720
10325.100234	0.01736
10330.000234	0.01734
10335.000234	0.01761
10340.000234	0.01804
10344.900234	0.01864
10350.000234	0.01966
10355.000234	0.02130
10360.000234	0.02448
10360.400234	0.02502
10360.900234	0.02544
10361.400234	0.02613
10361.900234	0.02664
10362.400234	0.02740
10363.000234	0.02813
10363.400234	0.02884
10363.900234	0.02963
10364.500234	0.03091
10365.000234	0.03200
10365.500234	0.03334
10366.000234	0.03499
10366.400235	0.03636
10366.900235	0.03816
10367.500235	0.04060
10367.900235	0.04281
10368.400235	0.04573
10368.900235	0.04969
10369.400235	0.05370
10370.000235	0.06033
10370.400235	0.06663
10370.900235	0.07515
10371.500235	0.08928
10371.900235	0.10705
10372.400235	0.13280
10372.900235	0.16757
10373.400235	0.21427
10373.900235	0.28855
10374.400235	0.40355
10375.000235	0.58360
10375.400235	0.77230
10375.900235	0.94536
10376.400235	1.02532
10376.900235	0.96639
10377.400235	0.83175
10378.000235	0.68281
10378.400235	0.59447
10379.000235	0.53481
10379.500235	0.50711
10379.900235	0.49564
10380.400235	0.48500
10380.900235	0.47486
10381.400235	0.46444
10381.900235	0.45502
10382.500235	0.44939
10382.900235	0.44692
10383.400235	0.44642
10383.900235	0.44652
10384.400235	0.44772
10384.900235	0.44852
10385.500235	0.44918
10386.000235	0.44759
10386.500235	0.44558
10387.000235	0.44054
10387.400235	0.43536
10387.900235	0.42922
10388.400235	0.42362
10389.000235	0.41763
10389.500235	0.41280
10390.000235	0.40904
10390.500235	0.40557
10391.000235	0.40202
10391.500235	0.39948
10392.000235	0.39789
10392.400235	0.39593
10393.000235	0.39465
10393.500235	0.39351
10393.900235	0.39261
10394.400235	0.39222
10394.900235	0.39184
10395.500235	0.39133
10395.900235	0.39109
10396.400235	0.39042
10397.000235	0.38959
10397.500235	0.38882
10397.900235	0.38845
10398.500235	0.38699
10398.900235	0.38676
10399.400235	0.38604
10400.000235	0.38493
10400.500235	0.38400
10401.000235	0.38291
10401.500235	0.38239
10401.900235	0.38167
10402.400235	0.38115
10402.900235	0.38027
10403.400235	0.37963
10403.900235	0.37930
10404.400235	0.37874
10404.900235	0.37839
10405.500235	0.37855
10405.900235	0.37815
10406.400235	0.37801
10406.900235	0.37775
10407.400235	0.37838
10407.900235	0.37878
10408.400235	0.38003
10409.000235	0.38139
10409.400235	0.38246
10409.900235	0.38378
10410.400235	0.38470
10410.900236	0.38526
10411.400236	0.38613
10412.000236	0.38733
10412.500236	0.38781
10413.000236	0.38893
10413.500236	0.39031
10413.900236	0.39138
10414.400236	0.39332
10414.900236	0.39456
10415.400236	0.39538
10415.900236	0.39614
10416.400236	0.39695
10416.900236	0.39746
10417.400236	0.39791
10417.900236	0.39818
10418.500236	0.39968
10418.900236	0.40018
10420.400236	0.40187
10423.300236	0.40507
10424.700236	0.40547
10426.200236	0.40589
10427.700236	0.40558
10429.200236	0.40495
10430.800236	0.40402
10432.300236	0.40333
10433.900236	0.40213
10435.500236	0.40081
10437.100236	0.39988
10438.800236	0.39905
10440.500236	0.39860
10442.100236	0.39846
10443.800236	0.39780
10445.500236	0.39847
10447.200236	0.39869
10449.000236	0.39926
10450.800236	0.39952
10452.600236	0.40024
10454.400236	0.40120
10456.200237	0.40133
10458.100237	0.40216
10459.900237	0.40242
10461.800237	0.40265
10463.700237	0.40276
10465.600237	0.40222
10467.500237	0.40187
10469.500237	0.40101
10471.500237	0.40009
10473.500237	0.39851
10475.500237	0.39691
10477.500237	0.39506
10479.600237	0.39269
10481.700237	0.39031
10483.700237	0.38799
10485.900237	0.38610
10488.000237	0.38456
10490.100237	0.38322
10492.300237	0.38234
10494.400237	0.38195
10496.700237	0.38215
10498.900237	0.38300
10501.100238	0.38444
10503.400238	0.38569
10505.700238	0.38769
10508.000238	0.38915
10510.300238	0.39102
10512.600238	0.39282
10515.000238	0.39460
10517.300238	0.39594
10519.800238	0.39738
10522.100238	0.39893
10524.600238	0.39970
10527.100238	0.40009
10529.400238	0.40030
10532.000238	0.40002
10534.400238	0.39962
10537.100238	0.39850
10539.600238	0.39739
10542.100238	0.39545
10544.700239	0.39348
10547.300239	0.39119
10549.900239	0.38934
10552.500239	0.38696
10555.200239	0.38546
10557.900239	0.38318
10560.600239	0.38120
10563.200239	0.37963
10566.000239	0.37831
10568.700239	0.37751
10571.600239	0.37699
10574.300239	0.37684
10577.100239	0.37685
10580.000239	0.37763
10582.800239	0.37816
10585.600239	0.37925
10588.500240	0.38024
10591.400240	0.38142
10594.400240	0.38281
10597.200240	0.38352
10600.300240	0.38489
10603.200240	0.38580
10606.200240	0.38636
10609.200240	0.38649
10612.300240	0.38716
10615.300240	0.38684
10618.400240	0.38656
10621.500240	0.38607
10624.600240	0.38500
10627.600240	0.38411
10630.800240	0.38276
10634.000241	0.38159
10637.200241	0.37978
10640.400241	0.37822
10643.700241	0.37686
10646.900241	0.37550
10650.100241	0.37408
10653.400241	0.37286
10656.700241	0.37149
10660.100241	0.37058
10663.400241	0.36980
10666.700241	0.36918
10670.000241	0.36890
10673.500241	0.36860
10676.900242	0.36851
10680.300242	0.36920
10683.800242	0.36967
10687.200242	0.36974
10690.700242	0.37004
10694.200242	0.37070
10697.700242	0.37109
10701.300242	0.37168
10704.800242	0.37199
10708.400242	0.37205
10712.100242	0.37202
10715.600242	0.37207
10719.300242	0.37186
10723.000243	0.37130
10726.600243	0.37075
10730.300243	0.36992
10734.000243	0.36939
10737.700243	0.36827
10741.500243	0.36715
10745.300243	0.36659
10749.100243	0.36525
10752.900243	0.36432
10756.700243	0.36333
10760.600243	0.36212
10764.400244	0.36120
10768.200244	0.36073
10772.100244	0.36006
10776.100244	0.35911
10780.000244	0.35902
10784.000244	0.35887
10788.000244	0.35827
10791.900244	0.35807
10796.000244	0.35828
10800.000244	0.35818
10804.000244	0.35809
10808.100244	0.35825
10812.200245	0.35827
10816.300245	0.35833
10820.500245	0.35838
10824.600245	0.35843
10828.700245	0.35839
10833.000245	0.35803
10837.100245	0.35807
10841.300245	0.35759
10845.700245	0.35726
10849.900245	0.35659
10854.100246	0.35611
10858.500246	0.35575
10862.800246	0.35513
10867.100246	0.35424
10871.400246	0.35368
10875.800246	0.35290
10880.200246	0.35225
10884.600246	0.35164
10889.100246	0.35116
10893.500246	0.35016
10898.000247	0.34968
10902.500247	0.34911
10906.900247	0.34901
10911.500247	0.34806
10916.000247	0.34770
10920.600247	0.34744
10925.300247	0.34712
10929.700247	0.34678
10934.400247	0.34664
10939.000247	0.34657
10943.700248	0.34637
10948.400248	0.34607
10953.000248	0.34589
10957.800248	0.34564
10962.500248	0.34515
10967.200248	0.34493
10972.000248	0.34478
10976.800248	0.34431
10981.600248	0.34407
10986.400249	0.34336
10991.300249	0.34317
10996.100249	0.34285
11001.000249	0.34181
11006.000249	0.34176
11010.900249	0.34089
11015.700249	0.34029
11020.700249	0.33989
11025.700249	0.33923
11030.800250	0.33875
11035.700250	0.33800
11040.700250	0.33771
11045.800250	0.33720
11050.900250	0.33691
11055.900250	0.33638
11061.100250	0.33590
11066.200250	0.33555
11071.400250	0.33495
11076.500251	0.33470
11081.700251	0.33441
11086.900251	0.33405
11092.100251	0.33395
11097.400251	0.33355
11102.600251	0.33307
11107.900251	0.33390
11113.200251	0.33415
11118.500252	0.33369
11123.800252	0.33303
11129.100252	0.33260
11134.600252	0.33212
11139.900252	0.33166
11145.400252	0.33154
11150.800252	0.33114
11156.300252	0.33096
11161.700252	0.33058
11167.200253	0.33010
11172.700253	0.32956
11178.300253	0.32901
11183.800253	0.32876
11189.300253	0.32828
11194.900253	0.32754
11200.400253	0.32698
11206.100253	0.32664
11211.800254	0.32624
11217.500254	0.32586
11223.100254	0.32526
11228.800254	0.32492
11234.500254	0.32474
11240.200254	0.32456
11246.000254	0.32392
11251.800255	0.32348
11257.500255	0.32302
11263.400255	0.32283
11269.200255	0.32253
11275.000255	0.32236
11280.900255	0.32152
11286.800255	0.32140
11292.700255	0.32108
11298.500256	0.32110
11304.500256	0.32073
11310.400256	0.32046
11316.500256	0.32039
11322.500256	0.31995
11328.500256	0.31985
