# XDI/1.0
# Column.1: energy(ev)
# Column.2: fluorescence_emission(au)
# Element.symbol: Pt
# Element.edge: L3
# Mono.name: Si 2 2 0
# Mono.d_spacing: 1.92
# Beamline.name: FAME
# Sample.name: Pellet of PtS mixed with BN
# Sample.temperature: 25.0 +/- -268.1 °C
# Sample.pressure: 1.0 bar
# Citation.doi:  https://doi.org/10.26302/SSHADE/EXPERIMENT_GP_20181107_001
# Citation.comments: Laskar, Clément; Pokrovski, Gleb; Bazarkina, Elena; Hazemann, Jean-Louis (2018): Pt L3 edge XAS HERFD and XAS transmission of platinum hydrogensulfide complexes in geological fluids (impact of sulfur on the transfer of noble metals by hydrothermal fluids). SSHADE/FAME (OSUG Data Center). Dataset/Spectral Data. https://doi.org/10.26302/SSHADE/EXPERIMENT_GP_20181107_001Schmitt, Bernard; Bollard, Philippe; Albert, Damien; Garenne, Alexandre; Bonal, Lydie; and the SSHADE partner's consortium (2018). SSHADE: 'Solid Spectroscopy Hosting Architecture of Databases and Expertise'. OSUG Data Center. Service/Database infrastructure. https://doi.org/10.26302/SSHADE
# ////
#---------
# energy(ev)	fluorescence_emission(au)
11451.500000	5.57830
11457.700000	5.56536
11462.900000	5.69553
11467.900000	5.65051
11473.000000	5.74395
11478.100000	5.70062
11483.100000	5.77850
11488.200000	5.68566
11493.100000	5.64580
11498.200000	5.73697
11503.200000	5.66231
11508.200000	5.79226
11513.300000	5.91206
11518.300000	5.84236
11523.200000	5.86431
11528.300000	5.87437
11533.300000	6.04725
11538.300000	6.17882
11543.300000	6.46561
11548.200000	7.28214
11553.400000	10.54266
11553.700000	10.60065
11553.800000	10.68216
11554.200000	11.28008
11554.500000	11.98077
11554.800000	12.55774
11555.100000	12.90487
11555.400000	13.63274
11555.700000	14.30553
11556.000000	15.37179
11556.300000	16.38274
11556.600000	17.44276
11556.900000	18.67469
11557.200000	20.04524
11557.500000	21.81652
11557.800000	23.65017
11558.100000	26.10968
11558.400000	29.17241
11558.700000	31.58459
11559.000000	36.11236
11559.300000	39.75863
11559.600000	45.31848
11559.900000	51.13607
11560.200000	59.00165
11560.500000	68.65981
11560.800000	80.88216
11561.100000	95.50946
11561.400000	115.25527
11561.700000	140.67511
11562.000000	172.98825
11562.300000	216.12130
11562.600000	272.30190
11562.900000	349.37309
11563.200000	445.05093
11563.500000	599.48654
11563.800000	812.37040
11564.100000	1094.71840
11564.400000	1495.23720
11564.700000	2036.84430
11565.000000	2760.87470
11565.300000	3668.49130
11565.600000	4766.24040
11565.900000	5920.86630
11566.200000	6988.29740
11566.500000	7838.79090
11566.800000	8319.29610
11567.100000	8301.61740
11567.400000	7843.15900
11567.700000	7146.72600
11568.000000	6413.83750
11568.300000	5753.25530
11568.600000	5195.07430
11568.900000	4680.27220
11569.200000	4269.31370
11569.500000	3947.01560
11569.800000	3727.78480
11570.100000	3563.27000
11570.400000	3470.82040
11570.700000	3424.49120
11571.000000	3399.64150
11571.300000	3377.50540
11571.600000	3356.97170
11571.900000	3329.06950
11572.200000	3291.47820
11572.500000	3257.21290
11572.800000	3220.29060
11573.100000	3201.21400
11574.000000	3335.81580
11575.000000	3776.70520
11576.100000	4043.44540
11577.100000	3893.71040
11578.100000	3627.68820
11579.100000	3347.99320
11580.100000	3047.40110
11581.100000	2934.05860
11582.100000	2954.61710
11583.100000	2929.58350
11584.100000	2806.09560
11585.100000	2727.98860
11586.100000	2708.51230
11587.100000	2732.90660
11588.100000	2774.45330
11589.100000	2820.31980
11590.000000	2904.53350
11591.100000	3037.10650
11592.100000	3185.16740
11593.100000	3308.49950
11594.100000	3360.60380
11595.100000	3321.05880
11596.100000	3222.16850
11597.100000	3121.92150
11598.100000	3052.29950
11599.100000	3023.43170
11600.100000	3019.59660
11601.100000	3039.99150
11602.100000	3066.48460
11603.000000	3091.60330
11604.100000	3120.41840
11605.100000	3151.50790
11606.100000	3173.60770
11607.100000	3207.50840
11608.100000	3241.13400
11609.100000	3277.35640
11610.100000	3334.50490
11611.100000	3377.12970
11612.100000	3420.22970
11614.000000	3493.61970
11616.100000	3546.11820
11618.000000	3549.53780
11620.200000	3457.37810
11622.200000	3342.76820
11624.100000	3236.42840
11626.100000	3168.20130
11628.100000	3132.04180
11630.100000	3110.72830
11632.000000	3100.88280
11634.100000	3090.52670
11636.200000	3078.98230
11638.100000	3063.59210
11640.100000	3033.08770
11642.100000	3007.59910
11644.100000	2988.88100
11646.100000	2984.02870
11648.200000	2981.47230
11650.100000	2972.88040
11652.100000	2966.06580
11655.100000	2974.49190
11655.800000	2980.75190
11659.300000	3032.53770
11661.300000	3057.45650
11663.200000	3085.42100
11665.100000	3113.39920
11667.000000	3148.17160
11669.000000	3183.77160
11670.900000	3220.22450
11672.900000	3252.92470
11674.900000	3285.51750
11676.900000	3298.84650
11679.100000	3301.80350
11681.000000	3290.64710
11683.100000	3268.78810
11685.200000	3231.12060
11687.300000	3212.22600
11689.500000	3173.43070
11691.700000	3137.14050
11693.900000	3104.28100
11696.000000	3068.82790
11698.200000	3041.04020
11700.500000	3021.02640
11702.700000	3016.09910
11705.000000	3018.06570
11707.300000	3038.22230
11709.600000	3047.26640
11711.900000	3051.74490
11714.300000	3051.20820
11716.600000	3045.45300
11719.000000	3047.51290
11721.500000	3046.34950
11723.800000	3045.82500
11726.300000	3050.34610
11728.800000	3053.32500
11731.100000	3046.56530
11733.700000	3045.95030
11736.300000	3044.26790
11738.700000	3042.14760
11741.300000	3057.98010
11743.900000	3079.26730
11746.400000	3104.57660
11749.100000	3141.69400
11751.700000	3165.17980
11754.400000	3182.90150
11757.000000	3191.23640
11759.600000	3181.69870
11762.400000	3164.10750
11765.200000	3152.21520
11767.900000	3141.46080
11770.600000	3135.15030
11773.400000	3124.04030
11776.200000	3108.60040
11779.100000	3101.46540
11781.800000	3082.31430
11784.700000	3062.85090
11787.600000	3046.93990
11790.500000	3032.25160
11793.400000	3024.67210
11796.300000	3019.02730
11799.200000	3019.90960
11802.200000	3024.39250
11805.200000	3030.95730
11808.300000	3030.14880
11811.200000	3026.88510
11814.300000	3026.73530
11817.300000	3032.09890
11820.400000	3035.35440
11823.600000	3036.04840
11826.700000	3044.70740
11829.800000	3055.65850
11832.900000	3055.68720
11836.200000	3061.32830
11839.300000	3066.16710
11842.500000	3079.83740
11845.700000	3083.99680
11849.000000	3081.63940
11852.400000	3077.90270
11855.600000	3075.09220
11858.900000	3067.19030
11862.200000	3057.38560
11865.600000	3056.36550
11868.900000	3059.57820
11872.300000	3063.34730
11875.600000	3060.63160
11879.100000	3053.94650
11882.600000	3051.09950
11886.000000	3035.93350
11889.500000	3029.45380
11893.000000	3018.52900
11896.600000	3009.57950
11900.000000	3001.93780
11903.600000	3008.10680
11907.200000	3003.33170
11910.800000	2999.98970
11914.400000	2997.41140
11918.000000	2993.52780
11921.600000	2996.61130
11925.400000	2997.55970
11929.000000	2995.26150
11932.700000	3000.82580
11936.400000	3007.44260
11940.200000	3008.91030
11943.900000	3016.78990
11947.700000	3016.44200
11951.500000	3023.31160
11955.400000	3020.66080
11959.200000	3018.09850
11963.000000	3012.68190
11966.900000	3014.51720
11970.900000	3013.81860
11974.700000	3011.27300
11978.600000	3007.16250
11982.600000	3003.16500
11986.600000	3002.00130
11990.500000	2994.00390
11994.500000	2994.42110
11998.600000	2994.65690
12002.600000	2990.69110
12006.700000	2983.78160
12010.700000	2976.50980
12014.900000	2972.45640
12019.000000	2962.67990
12023.100000	2958.85090
12027.200000	2959.62460
12031.500000	2952.42760
12035.600000	2954.46760
12039.800000	2953.97970
12044.100000	2951.21960
12048.300000	2947.98510
12052.600000	2948.63130
12056.800000	2946.72130
12061.200000	2947.05550
12065.500000	2943.42840
12069.800000	2947.23400
12074.300000	2943.24400
12078.600000	2945.13840
12083.000000	2944.29640
12087.400000	2943.55030
12091.900000	2935.72040
12096.300000	2941.37670
12100.800000	2934.13490
12105.400000	2935.65600
12109.800000	2932.21650
12114.300000	2935.02590
12118.900000	2931.05620
12123.500000	2927.71950
12128.100000	2925.01110
12132.600000	2919.68320
12137.300000	2916.92760
12141.900000	2909.37010
12146.500000	2908.45640
12151.400000	2903.65550
12156.000000	2896.91140
12160.700000	2891.27640
12165.500000	2887.02100
12170.200000	2883.79410
12175.000000	2881.56680
12179.800000	2882.28780
12184.700000	2875.82500
12189.500000	2878.70350
12194.300000	2877.94990
12199.200000	2876.17100
12204.100000	2876.96620
12209.000000	2877.30040
12214.000000	2876.78530
12218.800000	2876.18130
12223.800000	2876.00830
12228.900000	2871.65910
12233.800000	2862.91230
12238.800000	2856.42920
12244.000000	2853.54820
12249.000000	2849.40730
12254.000000	2846.70720
12259.200000	2844.20330
12264.300000	2841.33800
12269.400000	2840.56700
12274.600000	2840.21800
12279.700000	2833.30400
12284.900000	2827.44710
12290.200000	2828.33930
12295.400000	2825.39480
12300.600000	2826.01730
12306.000000	2819.55950
