# XDI/1.0
# Column.1: energy(ev)
# Column.2: transmission(au)
# Element.symbol: Pt
# Element.edge: L3
# Mono.name: Si 2 2 0
# Mono.d_spacing: 1.92
# Beamline.name: FAME
# Sample.name: Pellet of PtS (with 10% PtS2) mixed with BN
# Sample.temperature: 25.0 +/- -268.1 °C
# Sample.pressure: 1.0 bar
# Citation.doi:  https://doi.org/10.26302/SSHADE/EXPERIMENT_CL_20210211_001
# Citation.comments: Laskar, Clément; Pokrovski, Gleb; Bazarkina, Elena; Hazemann, Jean-Louis (2021): Pt L3 edge XAS transmission and XAS fluorescence of platinum hydrogensulfide complexes in geological fluids (stability, structure and their impact on ore deposit formation). SSHADE/FAME (OSUG Data Center). Dataset/Spectral Data. https://doi.org/10.26302/SSHADE/EXPERIMENT_CL_20210211_001Schmitt, Bernard; Bollard, Philippe; Albert, Damien; Garenne, Alexandre; Bonal, Lydie; and the SSHADE partner's consortium (2018). SSHADE: 'Solid Spectroscopy Hosting Architecture of Databases and Expertise'. OSUG Data Center. Service/Database infrastructure. https://doi.org/10.26302/SSHADE
# ////
#---------
# energy(ev)	transmission(au)
11447.495000	1.06415
11451.095000	1.06396
11453.295000	1.06196
11455.395000	1.06122
11457.395000	1.05999
11459.495000	1.06032
11461.495000	1.05979
11463.395000	1.05873
11465.495000	1.05884
11467.395000	1.05812
11469.395000	1.05759
11471.495000	1.05705
11473.495000	1.05735
11475.495000	1.05638
11477.395000	1.05632
11479.495000	1.05608
11481.495000	1.05480
11483.395000	1.05410
11485.495000	1.05375
11487.495000	1.05394
11489.495000	1.05308
11491.395000	1.05184
11493.495000	1.05155
11495.495000	1.05209
11497.395000	1.05175
11499.595000	1.05080
11501.495000	1.04996
11503.495000	1.05009
11505.495000	1.04987
11507.495000	1.05024
11509.495000	1.04939
11511.495000	1.04893
11513.595000	1.04793
11515.595000	1.04815
11517.495000	1.04743
11519.595000	1.04813
11521.595000	1.04774
11523.595000	1.04723
11525.495000	1.04685
11527.695000	1.04821
11529.495000	1.04765
11531.595000	1.04836
11533.595000	1.04988
11535.595000	1.05009
11537.595000	1.05019
11539.595000	1.05149
11541.695000	1.05323
11543.595000	1.05582
11545.495000	1.05744
11547.695000	1.06139
11549.595000	1.06494
11550.095000	1.06517
11550.295000	1.06606
11550.495000	1.06708
11550.795000	1.06831
11551.095000	1.06924
11551.395000	1.06972
11551.695000	1.07081
11551.995000	1.07092
11552.295000	1.07261
11552.595000	1.07394
11552.895000	1.07473
11553.195000	1.07526
11553.495000	1.07673
11553.795000	1.07803
11554.095000	1.07973
11554.395000	1.08107
11554.695000	1.08319
11554.995000	1.08507
11555.295000	1.08703
11555.595000	1.08837
11555.895000	1.09075
11556.195000	1.09306
11556.495000	1.09500
11556.795000	1.09815
11557.095000	1.10099
11557.395000	1.10451
11557.695000	1.10774
11557.995000	1.11236
11558.295000	1.11610
11558.595000	1.12005
11558.895000	1.12500
11559.195000	1.13003
11559.495000	1.13638
11559.795000	1.14272
11560.095000	1.14998
11560.395000	1.15859
11560.695000	1.16666
11560.995000	1.17654
11561.295000	1.18583
11561.595000	1.19626
11561.895000	1.20743
11562.195000	1.22048
11562.495000	1.23585
11562.795000	1.25287
11563.095000	1.27383
11563.395000	1.29451
11563.695000	1.31920
11563.995000	1.34552
11564.295000	1.37325
11564.595000	1.40344
11564.895000	1.43308
11565.195000	1.46542
11565.495000	1.49885
11565.795000	1.53085
11566.095000	1.55908
11566.395000	1.58363
11566.695000	1.60094
11566.995000	1.61574
11567.295000	1.62561
11567.595000	1.62975
11567.895000	1.62957
11568.195000	1.62576
11568.495000	1.61898
11568.795000	1.61113
11569.095000	1.60137
11569.395000	1.59066
11569.695000	1.57980
11569.995000	1.56862
11570.295000	1.55851
11570.595000	1.54977
11570.895000	1.54193
11571.195000	1.53450
11571.495000	1.52825
11571.795000	1.52424
11572.095000	1.52007
11572.395000	1.51756
11572.695000	1.51457
11572.995000	1.51346
11573.295000	1.51370
11573.595000	1.51275
11573.895000	1.51272
11574.195000	1.51496
11574.495000	1.51618
11574.795000	1.51783
11575.095000	1.51955
11575.395000	1.51990
11575.695000	1.52127
11575.995000	1.52218
11576.295000	1.52140
11576.595000	1.52130
11576.895000	1.52028
11577.195000	1.51774
11577.495000	1.51639
11577.795000	1.51432
11578.095000	1.51095
11578.395000	1.50602
11578.695000	1.50282
11578.995000	1.49786
11579.295000	1.49424
11579.595000	1.48879
11579.895000	1.48535
11580.195000	1.48210
11580.495000	1.47837
11580.795000	1.47609
11581.095000	1.47302
11581.395000	1.46966
11581.695000	1.46768
11581.995000	1.46598
11582.295000	1.46343
11582.595000	1.46024
11582.895000	1.45899
11583.195000	1.45601
11583.495000	1.45420
11583.795000	1.45192
11584.095000	1.45108
11584.395000	1.45098
11584.695000	1.44918
11584.995000	1.44758
11585.295000	1.44615
11585.595000	1.44594
11587.395000	1.44497
11588.495000	1.44746
11590.295000	1.45753
11591.495000	1.46512
11592.395000	1.47118
11593.495000	1.47630
11594.595000	1.47835
11595.695000	1.47738
11596.795000	1.47531
11597.895000	1.47222
11598.995000	1.46892
11600.195000	1.46973
11601.395000	1.47035
11602.495000	1.47227
11603.895000	1.47575
11604.995000	1.47909
11606.295000	1.48288
11607.595000	1.48736
11608.895000	1.49284
11610.195000	1.49762
11611.595000	1.50194
11612.895000	1.50683
11614.195000	1.50949
11615.595000	1.51225
11617.095000	1.51335
11618.495000	1.51166
11619.895000	1.50614
11621.395000	1.49973
11622.895000	1.49374
11624.495000	1.48766
11625.895000	1.48200
11627.395000	1.47815
11628.995000	1.47417
11630.595000	1.47137
11632.295000	1.46919
11633.795000	1.46805
11635.495000	1.46517
11637.095000	1.46439
11638.895000	1.46232
11640.495000	1.46015
11642.195000	1.45631
11643.895000	1.45512
11645.795000	1.45323
11647.395000	1.45125
11649.295000	1.45122
11650.995000	1.45033
11652.995000	1.45095
11654.695000	1.45234
11656.595000	1.45469
11658.395000	1.45626
11660.395000	1.45976
11662.295000	1.46176
11664.295000	1.46437
11666.195000	1.46586
11668.195000	1.47289
11670.095000	1.47600
11672.195000	1.47931
11674.195000	1.48145
11676.295000	1.48185
11678.295000	1.48261
11680.495000	1.48037
11682.495000	1.47674
11684.695000	1.47395
11686.795000	1.47018
11688.995000	1.46679
11691.195000	1.46238
11693.395000	1.45859
11695.695000	1.45584
11697.795000	1.45223
11699.995000	1.44998
11702.395000	1.44827
11704.695000	1.44846
11706.995000	1.44850
11709.395000	1.44902
11711.695000	1.44800
11713.995000	1.44837
11716.495000	1.44766
11718.895000	1.44731
11721.295000	1.44687
11723.795000	1.44645
11726.195000	1.44558
11728.595000	1.44614
11731.295000	1.44605
11733.695000	1.44684
11736.295000	1.44736
11738.895000	1.44657
11741.395000	1.44784
11743.995000	1.44848
11746.695000	1.45129
11749.295000	1.45326
11751.995000	1.45545
11754.595000	1.45676
11757.195000	1.45588
11759.995000	1.45378
11762.695000	1.45244
11765.495000	1.45261
11768.295000	1.44910
11770.995000	1.44663
11773.895000	1.44483
11776.695000	1.44379
11779.495000	1.44048
11782.495000	1.43820
11785.295000	1.43558
11788.195000	1.43374
11791.095000	1.43266
11793.995000	1.43098
11797.095000	1.42981
11799.895000	1.43019
11802.995000	1.42908
11805.995000	1.42941
11808.995000	1.42855
11812.095000	1.42782
11815.095000	1.42889
11818.195000	1.42689
11821.295000	1.42677
11824.495000	1.42820
11827.595000	1.42855
11830.695000	1.42785
11833.895000	1.42762
11837.095000	1.42851
11840.395000	1.42876
11843.495000	1.42733
11846.795000	1.42682
11850.095000	1.42576
11853.395000	1.42574
11856.695000	1.42323
11859.995000	1.42195
11863.395000	1.42255
11866.795000	1.42129
11870.195000	1.42130
11873.495000	1.42061
11876.995000	1.41957
11880.495000	1.41795
11883.995000	1.41553
11887.395000	1.41215
11890.895000	1.41133
11894.495000	1.40859
11898.095000	1.40700
11901.595000	1.40689
11905.095000	1.40614
11908.795000	1.40531
11912.495000	1.40374
11915.995000	1.40242
11919.695000	1.40116
11923.395000	1.40001
11927.095000	1.39908
11930.695000	1.39927
11934.495000	1.39982
11938.295000	1.39995
11942.095000	1.40028
11945.795000	1.39829
11949.595000	1.39653
11953.395000	1.39621
11957.295000	1.39600
11961.095000	1.39574
11964.995000	1.39433
11968.895000	1.39454
11972.895000	1.39381
11976.695000	1.39164
11980.795000	1.38974
11984.695000	1.38950
11988.795000	1.38708
11992.695000	1.38573
11996.795000	1.38546
12000.895000	1.38444
12004.895000	1.38214
12008.995000	1.38077
12013.195000	1.37830
12017.295000	1.37574
12021.295000	1.37691
12025.595000	1.37575
12029.695000	1.37503
12033.995000	1.37303
12038.095000	1.37320
12042.495000	1.37106
12046.695000	1.37134
12050.895000	1.37003
12055.295000	1.36801
12059.495000	1.36821
12063.895000	1.36707
12068.195000	1.36743
12072.695000	1.36616
12077.095000	1.36431
12081.395000	1.36386
12085.895000	1.36275
12090.295000	1.36112
12094.795000	1.35865
12099.195000	1.35858
12103.795000	1.35635
12108.295000	1.35805
12112.795000	1.35646
12117.395000	1.35534
12121.995000	1.35454
12126.495000	1.35275
12131.195000	1.35050
12135.795000	1.34894
12140.495000	1.34681
12145.095000	1.34625
12149.895000	1.34422
12154.595000	1.34257
12159.195000	1.34287
12164.095000	1.34023
12168.795000	1.34038
12173.495000	1.33767
12178.395000	1.33595
12183.195000	1.33513
12188.095000	1.33365
12192.895000	1.33389
12197.795000	1.33153
12202.695000	1.33129
12207.595000	1.33036
12212.595000	1.32815
12217.495000	1.32827
12222.395000	1.32893
12227.595000	1.32698
12232.495000	1.32560
12237.395000	1.32356
12242.695000	1.32151
12247.695000	1.32039
12252.695000	1.31896
12257.895000	1.31738
12263.095000	1.31733
12267.995000	1.31574
12273.395000	1.31532
12278.495000	1.31320
12283.595000	1.31142
12288.995000	1.31106
12294.195000	1.30835
12299.395000	1.30836
12304.795000	1.30738
12309.995000	1.30578
12315.195000	1.30405
12320.795000	1.30158
12326.095000	1.29885
12331.295000	1.29851
12336.895000	1.29516
12342.195000	1.29444
12347.495000	1.29454
12353.195000	1.29335
12358.595000	1.29240
12363.995000	1.29014
12369.595000	1.29081
12375.095000	1.28804
12380.595000	1.28595
12386.195000	1.28483
12391.795000	1.28449
12397.395000	1.28449
12402.995000	1.28241
12408.595000	1.27953
12414.295000	1.27587
