# XDI/1.0
# Column.1: energy(ev)
# Column.2: transmission(au)
# Element.symbol: Pt
# Element.edge: L3
# Mono.name: Si 2 2 0
# Mono.d_spacing: 1.92
# Beamline.name: FAME
# Sample.name: Pellet of K2PtCl6 mixed with BN
# Sample.temperature: 25.0 +/- 5.0 °C
# Sample.pressure: 1.0 bar
# Citation.doi:  https://doi.org/10.26302/SSHADE/EXPERIMENT_GP_20180208_001
# Citation.comments: Pokrovski, Gleb; Hazemann, Jean-Louis (2018): Pt L3 edge XAS fluorescence and XAS transmission of Aqueous platinum chloride soutions at 600-700 nars and 30°C. SSHADE/FAME (OSUG Data Center). Dataset/Spectral Data. https://doi.org/10.26302/SSHADE/EXPERIMENT_GP_20180208_001Schmitt, Bernard; Bollard, Philippe; Albert, Damien; Garenne, Alexandre; Bonal, Lydie; and the SSHADE partner's consortium (2018). SSHADE: 'Solid Spectroscopy Hosting Architecture of Databases and Expertise'. OSUG Data Center. Service/Database infrastructure. https://doi.org/10.26302/SSHADE
# ////
#---------
# energy(ev)	transmission(au)
11446.900000	1.20862
11450.200000	1.20792
11452.400000	1.20768
11454.400000	1.20810
11456.400000	1.20746
11458.500000	1.20683
11460.500000	1.20618
11462.400000	1.20605
11464.500000	1.20534
11466.500000	1.20499
11468.400000	1.20499
11470.500000	1.20387
11472.500000	1.20399
11474.500000	1.20405
11476.400000	1.20347
11478.500000	1.20315
11480.400000	1.20275
11482.400000	1.20198
11484.500000	1.20144
11486.500000	1.20050
11488.400000	1.20052
11490.400000	1.20046
11492.500000	1.20026
11494.500000	1.19999
11496.500000	1.19962
11498.500000	1.19924
11500.500000	1.19846
11502.500000	1.19831
11504.500000	1.19792
11506.500000	1.19766
11508.500000	1.19683
11510.500000	1.19662
11512.600000	1.19663
11514.500000	1.19630
11516.500000	1.19644
11518.500000	1.19610
11520.600000	1.19585
11522.600000	1.19541
11524.600000	1.19554
11526.700000	1.19494
11528.600000	1.19479
11530.600000	1.19569
11532.600000	1.19625
11534.600000	1.19671
11536.600000	1.19716
11538.600000	1.19823
11540.700000	1.19945
11542.600000	1.20085
11544.500000	1.20235
11546.600000	1.20614
11548.600000	1.20891
11549.200000	1.20980
11549.700000	1.21141
11550.100000	1.21200
11550.600000	1.21300
11551.100000	1.21396
11551.600000	1.21528
11552.100000	1.21729
11552.600000	1.21958
11553.100000	1.22073
11553.600000	1.22290
11554.100000	1.22555
11554.600000	1.22809
11555.100000	1.23130
11555.600000	1.23425
11556.100000	1.23790
11556.600000	1.24102
11557.100000	1.24684
11557.600000	1.25205
11558.100000	1.25881
11558.600000	1.26567
11559.100000	1.27344
11559.600000	1.28295
11560.100000	1.29407
11560.600000	1.30616
11561.100000	1.32099
11561.600000	1.33885
11562.100000	1.36242
11562.600000	1.38479
11563.100000	1.41884
11563.600000	1.45854
11564.100000	1.50672
11564.600000	1.56449
11565.100000	1.63321
11565.600000	1.72100
11566.100000	1.82132
11566.600000	1.92089
11567.100000	2.01167
11567.600000	2.07763
11568.100000	2.10862
11568.600000	2.09878
11569.100000	2.04811
11569.600000	1.96940
11570.100000	1.88534
11570.600000	1.80210
11571.100000	1.72325
11571.600000	1.67142
11572.100000	1.62497
11572.600000	1.59325
11573.100000	1.57150
11573.600000	1.55753
11574.100000	1.55091
11574.600000	1.54955
11575.100000	1.55123
11575.600000	1.55700
11576.100000	1.56315
11576.600000	1.56985
11577.100000	1.57530
11577.600000	1.58003
11578.100000	1.58369
11578.600000	1.58610
11579.100000	1.58774
11579.600000	1.58836
11580.100000	1.58831
11580.600000	1.58788
11581.100000	1.58677
11581.600000	1.58499
11582.100000	1.58172
11582.600000	1.57844
11583.100000	1.57532
11583.600000	1.57120
11584.100000	1.56731
11584.600000	1.56296
11585.500000	1.55554
11587.300000	1.54455
11588.500000	1.54314
11589.400000	1.54490
11590.400000	1.54830
11591.400000	1.55250
11592.500000	1.55694
11593.500000	1.56349
11594.700000	1.57043
11595.800000	1.57727
11596.900000	1.58295
11598.000000	1.58798
11599.200000	1.59081
11600.400000	1.59309
11601.600000	1.59626
11602.800000	1.59926
11604.000000	1.60094
11605.300000	1.60388
11606.600000	1.60612
11607.900000	1.60962
11609.300000	1.61454
11610.500000	1.61912
11611.900000	1.62584
11613.300000	1.63234
11614.600000	1.63814
11616.100000	1.64242
11617.500000	1.64336
11618.900000	1.64339
11620.400000	1.64074
11621.900000	1.63605
11623.400000	1.62869
11625.000000	1.61777
11626.400000	1.60735
11628.000000	1.59648
11629.600000	1.58807
11631.300000	1.58079
11632.800000	1.57634
11634.500000	1.57287
11636.100000	1.57051
11637.900000	1.56928
11639.500000	1.56835
11641.200000	1.56733
11642.900000	1.56635
11644.800000	1.56572
11646.400000	1.56472
11648.300000	1.56383
11650.000000	1.56377
11652.000000	1.56422
11653.700000	1.56572
11655.600000	1.56728
11657.400000	1.56887
11659.400000	1.57183
11661.300000	1.57605
11663.200000	1.57979
11665.200000	1.58429
11667.200000	1.58886
11669.100000	1.59476
11671.200000	1.60096
11673.200000	1.60609
11675.300000	1.61029
11677.300000	1.61261
11679.500000	1.61350
11681.600000	1.61046
11683.700000	1.60568
11685.800000	1.59867
11688.000000	1.59143
11690.100000	1.58420
11692.400000	1.57737
11694.700000	1.57175
11696.900000	1.56780
11699.000000	1.56454
11701.400000	1.56132
11703.600000	1.55931
11706.000000	1.55820
11708.400000	1.55730
11710.700000	1.55631
11713.000000	1.55569
11715.400000	1.55496
11717.800000	1.55585
11720.300000	1.55556
11722.800000	1.55552
11725.200000	1.55625
11727.600000	1.55779
11730.200000	1.55837
11732.700000	1.56027
11735.300000	1.56275
11737.900000	1.56623
11740.500000	1.56820
11742.800000	1.57102
11745.600000	1.57382
11748.300000	1.57695
11751.000000	1.57700
11753.600000	1.57765
11756.200000	1.57724
11759.000000	1.57564
11761.700000	1.57321
11764.500000	1.56950
11767.300000	1.56641
11770.000000	1.56319
11772.800000	1.56000
11775.600000	1.55681
11778.500000	1.55349
11781.400000	1.55172
11784.200000	1.54889
11787.100000	1.54672
11790.000000	1.54540
11793.000000	1.54350
11796.000000	1.54131
11798.900000	1.54009
11801.900000	1.53906
11804.900000	1.53781
11807.900000	1.53700
11811.100000	1.53729
11814.000000	1.53683
11817.200000	1.53696
11820.300000	1.53781
11823.500000	1.53950
11826.600000	1.53984
11829.700000	1.54071
11833.000000	1.54210
11836.100000	1.54362
11839.400000	1.54380
11842.600000	1.54369
11845.900000	1.54412
11849.200000	1.54252
11852.500000	1.54112
11855.700000	1.53981
11859.000000	1.53806
11862.500000	1.53546
11865.800000	1.53385
11869.300000	1.53182
11872.600000	1.52973
11876.100000	1.52734
11879.500000	1.52528
11883.000000	1.52345
11886.400000	1.52145
11890.000000	1.51963
11893.500000	1.51855
11897.100000	1.51631
11900.600000	1.51482
11904.200000	1.51375
11907.800000	1.51276
11911.400000	1.51057
11915.000000	1.51060
11918.700000	1.50998
11922.400000	1.50942
11926.100000	1.50916
11929.700000	1.50969
11933.500000	1.50914
11937.300000	1.50932
11941.100000	1.50958
11944.800000	1.50946
11948.600000	1.50911
11952.500000	1.50865
11956.400000	1.50855
11960.100000	1.50721
11964.000000	1.50664
11967.900000	1.50475
11971.900000	1.50337
11975.700000	1.50189
11979.800000	1.50048
11983.700000	1.49871
11987.800000	1.49671
11991.700000	1.49519
11995.800000	1.49315
11999.900000	1.49147
12003.900000	1.48995
12007.900000	1.48864
12012.200000	1.48645
12016.300000	1.48536
12020.300000	1.48400
12024.600000	1.48213
12028.700000	1.48085
12033.000000	1.48007
12037.100000	1.47888
12041.400000	1.47790
12045.700000	1.47727
12049.900000	1.47617
12054.200000	1.47575
12058.600000	1.47540
12062.900000	1.47464
12067.100000	1.47359
12071.700000	1.47323
12076.100000	1.47225
12080.400000	1.47097
12084.800000	1.47071
12089.300000	1.46922
12093.800000	1.46776
12098.200000	1.46683
12102.800000	1.46525
12107.300000	1.46387
12111.700000	1.46273
12116.400000	1.46076
12120.900000	1.45911
12125.600000	1.45800
12130.200000	1.45573
12134.800000	1.45424
12139.500000	1.45253
12144.100000	1.45094
12148.900000	1.44949
12153.600000	1.44758
12158.200000	1.44606
12163.100000	1.44519
12167.800000	1.44345
12172.500000	1.44213
12177.400000	1.44090
12182.200000	1.43955
12187.100000	1.43852
12192.000000	1.43771
12196.800000	1.43657
12201.700000	1.43541
12206.600000	1.43448
12211.600000	1.43310
12216.500000	1.43246
12221.500000	1.43094
12226.600000	1.42949
12231.600000	1.42862
12236.500000	1.42717
12241.700000	1.42561
12246.700000	1.42434
12251.700000	1.42255
12257.000000	1.42111
12262.100000	1.41984
12267.100000	1.41789
12272.400000	1.41678
12277.500000	1.41452
12282.600000	1.41318
12288.000000	1.41136
12293.200000	1.40988
12298.400000	1.40750
12303.800000	1.40635
