# XDI/1.0
# Column.1: energy(ev)
# Column.2: transmission(au)
# Element.symbol: W
# Element.edge: L3
# Mono.name: Si 2 2 0
# Mono.d_spacing: 1.92
# Beamline.name: FAME
# Sample.name: Frozen solution of (NH4)6H2W12O40 aqueous solution at 0.1mol/l
# Sample.temperature: 10.0 +/- 1.0 K
# Sample.pressure: None
# Citation.doi:  https://doi.org/10.26302/SSHADE/EXPERIMENT_OP_20201209_001
# Citation.comments: Proux, Olivier (2020): W L3 edge XAS transmission and XAS fluorescence of W reference compounds at 10K. SSHADE/FAME (OSUG Data Center). Dataset/Spectral Data. https://doi.org/10.26302/SSHADE/EXPERIMENT_OP_20201209_001Schmitt, Bernard; Bollard, Philippe; Albert, Damien; Garenne, Alexandre; Bonal, Lydie; and the SSHADE partner's consortium (2018). SSHADE: 'Solid Spectroscopy Hosting Architecture of Databases and Expertise'. OSUG Data Center. Service/Database infrastructure. https://doi.org/10.26302/SSHADE
# ////
#---------
# energy(ev)	transmission(au)
10052.334000	2.25475
10056.034000	2.25206
10059.234000	2.24930
10062.234000	2.24723
10065.234000	2.24537
10068.334000	2.24269
10071.234000	2.23996
10074.234000	2.23803
10077.234000	2.23627
10080.234000	2.23516
10083.334000	2.23343
10086.334000	2.23144
10089.434000	2.22890
10092.434000	2.22686
10095.434000	2.22463
10098.534000	2.22228
10101.534000	2.22031
10104.534000	2.21808
10107.434000	2.21585
10110.534000	2.21347
10113.534000	2.21175
10116.434000	2.20959
10119.534000	2.20672
10122.434000	2.20426
10125.534000	2.20168
10128.534000	2.19929
10131.534000	2.19756
10134.534000	2.19571
10137.434000	2.19367
10140.534000	2.19286
10143.534000	2.19042
10146.534000	2.18834
10149.534000	2.18651
10152.534000	2.18477
10155.534000	2.18293
10158.434000	2.18013
10161.534000	2.17759
10164.534000	2.17589
10167.534000	2.17535
10168.034000	2.17501
10168.134000	2.17476
10168.434000	2.17550
10168.734000	2.17506
10169.034000	2.17489
10169.334000	2.17470
10169.634000	2.17454
10169.934000	2.17430
10170.234000	2.17392
10170.534000	2.17372
10170.834000	2.17420
10171.134000	2.17380
10171.434000	2.17368
10171.734000	2.17326
10172.034000	2.17272
10172.334000	2.17296
10172.634000	2.17321
10172.934000	2.17414
10173.234000	2.17373
10173.534000	2.17380
10173.834000	2.17346
10174.134000	2.17300
10174.434000	2.17273
10174.734000	2.17256
10175.034000	2.17255
10175.334000	2.17327
10175.634000	2.17243
10175.934000	2.17216
10176.234000	2.17257
10176.534000	2.17312
10176.834000	2.17235
10177.134000	2.17236
10177.434000	2.17150
10177.734000	2.17140
10178.034000	2.17175
10178.334000	2.17180
10178.634000	2.17167
10178.934000	2.17150
10179.234000	2.17234
10179.534000	2.17241
10179.834000	2.17211
10180.134000	2.17227
10180.434000	2.17194
10180.734000	2.17247
10181.034000	2.17270
10181.334000	2.17288
10181.634000	2.17213
10181.934000	2.17253
10182.234000	2.17257
10182.534000	2.17236
10182.834000	2.17244
10183.134000	2.17305
10183.434000	2.17358
10183.734000	2.17352
10184.034000	2.17310
10184.334000	2.17358
10184.634000	2.17381
10184.934000	2.17416
10185.234000	2.17404
10185.534000	2.17380
10185.834000	2.17399
10186.134000	2.17424
10186.434000	2.17479
10186.734000	2.17577
10187.034000	2.17539
10187.334000	2.17576
10187.634000	2.17629
10187.934000	2.17650
10188.234000	2.17690
10188.534000	2.17758
10188.834000	2.17796
10189.134000	2.17849
10189.434000	2.17817
10189.734000	2.17843
10190.034000	2.17903
10190.334000	2.17923
10190.634000	2.18090
10190.934000	2.18097
10191.234000	2.18086
10191.534000	2.18190
10191.834000	2.18290
10192.134000	2.18433
10192.434000	2.18560
10192.734000	2.18666
10193.034000	2.18669
10193.334000	2.18765
10193.634000	2.18867
10193.934000	2.18947
10194.234000	2.19061
10194.534000	2.19223
10194.834000	2.19356
10195.134000	2.19407
10195.434000	2.19484
10195.734000	2.19683
10196.034000	2.19904
10196.334000	2.20063
10196.634000	2.20217
10196.934000	2.20415
10197.234000	2.20607
10197.534000	2.20758
10197.834000	2.21039
10198.134000	2.21193
10198.434000	2.21441
10198.734000	2.21781
10199.034000	2.22074
10199.334000	2.22445
10199.634000	2.22781
10199.934000	2.23175
10200.234000	2.23530
10200.534000	2.23934
10200.834000	2.24407
10201.134000	2.24827
10201.434000	2.25472
10201.734000	2.25904
10202.034000	2.26533
10202.334000	2.27205
10202.634000	2.27889
10202.934000	2.28652
10203.234000	2.29543
10203.534000	2.30393
10203.834000	2.31354
10204.134000	2.32586
10204.434000	2.33915
10204.734000	2.35250
10205.034000	2.36757
10205.334000	2.38420
10205.634000	2.40377
10205.934000	2.42345
10206.234000	2.44913
10206.534000	2.47662
10206.834000	2.50789
10207.134000	2.54310
10207.434000	2.58353
10207.734000	2.63103
10208.034000	2.67571
10208.334000	2.73500
10208.634000	2.80161
10208.934000	2.87588
10209.234000	2.96094
10209.534000	3.06076
10209.834000	3.17109
10210.134000	3.28531
10210.434000	3.41342
10210.734000	3.54534
10211.034000	3.67647
10211.334000	3.79692
10211.634000	3.91112
10211.934000	4.00386
10212.234000	4.06342
10212.534000	4.11024
10212.834000	4.13605
10213.134000	4.14797
10213.434000	4.15227
10213.734000	4.14873
10214.034000	4.14052
10214.334000	4.13779
10214.634000	4.14311
10214.934000	4.14996
10215.234000	4.14810
10215.534000	4.13458
10215.834000	4.09402
10216.134000	4.02709
10216.434000	3.95467
10216.734000	3.86842
10217.034000	3.77432
10217.334000	3.68222
10217.634000	3.59144
10217.934000	3.50361
10218.234000	3.42161
10218.534000	3.35221
10218.834000	3.28252
10219.134000	3.22249
10219.634000	3.12974
10219.834000	3.09074
10221.034000	2.91894
10221.934000	2.84436
10222.634000	2.79794
10223.434000	2.76816
10224.234000	2.75061
10225.034000	2.73885
10225.834000	2.73076
10226.634000	2.72280
10227.534000	2.71324
10228.434000	2.70230
10229.334000	2.69094
10230.234000	2.68029
10231.134000	2.67136
10232.134000	2.66333
10233.034000	2.65746
10234.034000	2.65365
10235.134000	2.65081
10236.134000	2.64801
10237.234000	2.64656
10238.234000	2.64421
10239.334000	2.64220
10240.434000	2.63837
10241.534000	2.63439
10242.634000	2.63060
10243.834000	2.62800
10245.034000	2.62524
10246.334000	2.62392
10247.434000	2.62356
10248.734000	2.62454
10249.934000	2.62755
10251.234000	2.63266
10252.534000	2.63761
10253.834000	2.64566
10255.134000	2.65501
10256.534000	2.66532
10257.934000	2.67543
10259.334000	2.68620
10260.634000	2.69556
10262.134000	2.70431
10263.534000	2.71039
10265.034000	2.71509
10266.434000	2.71679
10268.034000	2.71755
10269.534000	2.71551
10271.034000	2.71208
10272.634000	2.70748
10274.234000	2.70065
10275.734000	2.69426
10277.434000	2.68726
10279.034000	2.68183
10280.734000	2.67555
10282.334000	2.67037
10284.134000	2.66636
10285.734000	2.66333
10287.434000	2.66051
10289.234000	2.65744
10291.034000	2.65508
10292.734000	2.65361
10294.634000	2.65236
10296.434000	2.65069
10298.234000	2.64934
10300.134000	2.64685
10302.034000	2.64491
10303.834000	2.64274
10305.834000	2.64051
10307.734000	2.63763
10309.634000	2.63499
10311.734000	2.63154
10313.634000	2.62976
10315.634000	2.62776
10317.734000	2.62640
10319.734000	2.62491
10321.834000	2.62442
10323.934000	2.62385
10326.034000	2.62425
10328.134000	2.62505
10330.234000	2.62633
10332.434000	2.62770
10334.634000	2.62940
10336.834000	2.63021
10339.034000	2.63120
10341.234000	2.63215
10343.534000	2.63280
10345.834000	2.63235
10348.034000	2.63151
10350.434000	2.62956
10352.734000	2.62698
10355.134000	2.62490
10357.434000	2.62252
10359.834000	2.61890
10362.234000	2.61564
10364.634000	2.61360
10367.134000	2.61117
10369.634000	2.60905
10372.134000	2.60715
10374.534000	2.60554
10377.034000	2.60403
10379.634000	2.60259
10382.134000	2.60100
10384.734000	2.59903
10387.334000	2.59616
10390.034000	2.59406
10392.634000	2.59220
10395.334000	2.58950
10397.934000	2.58659
10400.734000	2.58343
10403.334000	2.58018
10406.134000	2.57740
10408.734000	2.57539
10411.634000	2.57277
10414.334000	2.57011
10417.234000	2.56851
10419.934000	2.56655
10422.834000	2.56437
10425.634000	2.56352
10428.634000	2.56264
10431.434000	2.56189
10434.434000	2.56115
10437.334000	2.55961
10440.234000	2.55852
10443.234000	2.55714
10446.234000	2.55493
10449.234000	2.55296
10452.234000	2.55038
10455.334000	2.54742
10458.434000	2.54482
10461.534000	2.54203
10464.534000	2.53971
10467.734000	2.53714
10470.834000	2.53539
10474.034000	2.53376
10477.134000	2.53283
10480.434000	2.53122
10483.634000	2.52955
10486.834000	2.52735
10490.134000	2.52561
10493.334000	2.52409
10496.634000	2.52099
10499.934000	2.51886
10503.334000	2.51577
10506.734000	2.51369
10509.934000	2.51149
10513.434000	2.50844
10516.834000	2.50537
10520.234000	2.50278
10523.734000	2.50004
10527.134000	2.49731
10530.634000	2.49485
10534.134000	2.49361
10537.634000	2.49090
10541.234000	2.48896
10544.734000	2.48696
10548.434000	2.48503
10551.934000	2.48344
10555.534000	2.48216
10559.234000	2.47980
10562.834000	2.47744
10566.434000	2.47454
10570.234000	2.47286
10573.934000	2.47072
10577.634000	2.46737
10581.334000	2.46527
10585.134000	2.46303
10588.934000	2.46045
10592.734000	2.45752
10596.534000	2.45482
10600.334000	2.45203
10604.234000	2.44952
10608.134000	2.44721
10612.034000	2.44463
10615.934000	2.44222
10619.834000	2.43950
10623.834000	2.43733
10627.734000	2.43413
10631.834000	2.43123
10635.734000	2.42871
10639.834000	2.42512
10643.934000	2.42170
10647.834000	2.41863
10652.034000	2.41580
10656.134000	2.41361
10660.134000	2.41109
10664.434000	2.40829
10668.634000	2.40486
10672.634000	2.40230
10676.934000	2.40015
10681.134000	2.39740
10685.334000	2.39500
10689.634000	2.39222
10693.934000	2.38948
10698.234000	2.38670
10702.534000	2.38436
10706.834000	2.38166
10711.234000	2.37838
10715.634000	2.37605
10719.934000	2.37255
10724.334000	2.36965
10728.834000	2.36670
10733.234000	2.36308
10737.734000	2.36050
10742.134000	2.35773
10746.734000	2.35488
10751.234000	2.35164
10755.734000	2.34913
10760.334000	2.34618
10764.934000	2.34322
10769.434000	2.34008
10774.134000	2.33677
10778.634000	2.33371
10783.434000	2.33033
10788.034000	2.32735
10792.734000	2.32395
10797.534000	2.32005
10802.134000	2.31709
10806.934000	2.31408
10811.734000	2.31071
10816.434000	2.30782
10821.334000	2.30432
10826.034000	2.30134
10831.034000	2.29854
10835.834000	2.29593
10840.634000	2.29337
10845.634000	2.29025
10850.434000	2.28768
10855.534000	2.28433
10860.334000	2.28091
10865.334000	2.27752
10870.334000	2.27475
10875.334000	2.27142
10880.434000	2.26823
10885.434000	2.26570
10890.534000	2.26282
10895.634000	2.25827
10900.634000	2.25465
10905.834000	2.25145
10910.934000	2.24879
10916.134000	2.24558
10921.334000	2.24164
10926.534000	2.23915
10931.734000	2.23626
10936.934000	2.23320
10942.334000	2.22936
10947.534000	2.22668
10952.834000	2.22323
10958.134000	2.21952
10963.434000	2.21625
10968.834000	2.21288
10974.134000	2.21022
10979.634000	2.20636
10984.934000	2.20295
10990.434000	2.19960
10995.834000	2.19615
11001.234000	2.19303
11006.834000	2.18934
11012.234000	2.18651
11017.834000	2.18312
11023.334000	2.18016
11028.934000	2.17652
11034.434000	2.17291
11040.034000	2.17048
11045.734000	2.16649
11051.334000	2.16306
11057.034000	2.15989
11062.534000	2.15657
11068.334000	2.15288
11074.034000	2.14969
11079.834000	2.14621
11085.534000	2.14258
11091.334000	2.13894
11097.034000	2.13510
11102.834000	2.13265
11108.734000	2.12911
11114.534000	2.12619
11120.434000	2.12251
11126.234000	2.11870
11132.234000	2.11539
11138.034000	2.11198
11144.034000	2.10827
11149.934000	2.10519
11155.934000	2.10104
11161.934000	2.09750
11167.934000	2.09449
11174.034000	2.09119
11180.034000	2.08754
11186.134000	2.08362
11192.134000	2.08044
11198.334000	2.07646
11204.334000	2.07292
11210.634000	2.06908
11216.634000	2.06584
11222.934000	2.06273
11229.034000	2.05968
11235.334000	2.05620
11241.534000	2.05299
11247.834000	2.04895
11254.034000	2.04586
11260.434000	2.04246
11266.634000	2.03905
11273.034000	2.03533
11279.434000	2.03169
11285.734000	2.02859
11292.134000	2.02466
11298.534000	2.02119
11305.034000	2.01735
11311.334000	2.01364
11317.834000	2.01060
11324.334000	2.00629
11330.834000	2.00303
11337.334000	1.99948
11343.934000	1.99614
11350.434000	1.99280
11357.134000	1.98881
11363.634000	1.98557
11370.334000	1.98171
11376.834000	1.97822
11383.634000	1.97504
11390.234000	1.97140
11396.934000	1.96776
11403.634000	1.96425
11410.434000	1.96045
11417.034000	1.95654
11423.934000	1.95312
11430.634000	1.94899
