# XDI/1.0
# Column.1: energy(ev)
# Column.2: transmission(au)
# Element.symbol: W
# Element.edge: L3
# Mono.name: Si 2 2 0
# Mono.d_spacing: 1.92
# Beamline.name: FAME
# Sample.name: Frozen solution of Na2WO4 aqueous solution at 0.1mol/l
# Sample.temperature: 10.0 +/- 1.0 K
# Sample.pressure: None
# Citation.doi:  https://doi.org/10.26302/SSHADE/EXPERIMENT_OP_20201209_001
# Citation.comments: Proux, Olivier (2020): W L3 edge XAS transmission and XAS fluorescence of W reference compounds at 10K. SSHADE/FAME (OSUG Data Center). Dataset/Spectral Data. https://doi.org/10.26302/SSHADE/EXPERIMENT_OP_20201209_001Schmitt, Bernard; Bollard, Philippe; Albert, Damien; Garenne, Alexandre; Bonal, Lydie; and the SSHADE partner's consortium (2018). SSHADE: 'Solid Spectroscopy Hosting Architecture of Databases and Expertise'. OSUG Data Center. Service/Database infrastructure. https://doi.org/10.26302/SSHADE
# ////
#---------
# energy(ev)	transmission(au)
10052.321000	1.77587
10056.021000	1.77409
10059.121000	1.77308
10062.121000	1.77197
10065.121000	1.77064
10068.221000	1.76890
10071.121000	1.76794
10074.121000	1.76666
10077.221000	1.76518
10080.121000	1.76414
10083.221000	1.76306
10086.221000	1.76102
10089.321000	1.75983
10092.321000	1.75866
10095.321000	1.75740
10098.421000	1.75655
10101.421000	1.75548
10104.421000	1.75443
10107.421000	1.75411
10110.421000	1.75276
10113.421000	1.75087
10116.321000	1.74951
10119.421000	1.74836
10122.321000	1.74723
10125.421000	1.74695
10128.421000	1.74629
10131.421000	1.74534
10134.421000	1.74412
10137.321000	1.74194
10140.421000	1.74236
10143.421000	1.74039
10146.421000	1.73818
10149.421000	1.73588
10152.421000	1.73446
10155.421000	1.73320
10158.321000	1.73252
10161.421000	1.73162
10164.421000	1.73066
10167.421000	1.73049
10167.921000	1.73008
10168.021000	1.73013
10168.321000	1.73021
10168.621000	1.73016
10168.921000	1.73056
10169.221000	1.73059
10169.521000	1.73031
10169.821000	1.73034
10170.121000	1.73080
10170.421000	1.73035
10170.721000	1.73058
10171.021000	1.73051
10171.321000	1.73038
10171.621000	1.73084
10171.921000	1.73043
10172.221000	1.73054
10172.521000	1.73035
10172.821000	1.73025
10173.121000	1.73074
10173.421000	1.73096
10173.721000	1.73126
10174.021000	1.73091
10174.321000	1.73066
10174.621000	1.73108
10174.921000	1.73106
10175.221000	1.73105
10175.521000	1.73074
10175.821000	1.73099
10176.121000	1.73059
10176.421000	1.73070
10176.721000	1.73085
10177.021000	1.73062
10177.321000	1.73049
10177.621000	1.73088
10177.921000	1.73072
10178.221000	1.73063
10178.521000	1.73081
10178.821000	1.73053
10179.121000	1.73073
10179.421000	1.73089
10179.721000	1.73105
10180.021000	1.73055
10180.321000	1.73006
10180.621000	1.73037
10180.921000	1.73073
10181.221000	1.73032
10181.521000	1.73095
10181.821000	1.73078
10182.121000	1.73066
10182.421000	1.73117
10182.721000	1.73161
10183.021000	1.73167
10183.321000	1.73177
10183.621000	1.73171
10183.921000	1.73186
10184.221000	1.73180
10184.521000	1.73228
10184.821000	1.73235
10185.121000	1.73248
10185.421000	1.73291
10185.721000	1.73319
10186.021000	1.73351
10186.321000	1.73362
10186.621000	1.73364
10186.921000	1.73417
10187.221000	1.73476
10187.521000	1.73490
10187.821000	1.73521
10188.121000	1.73568
10188.421000	1.73553
10188.721000	1.73619
10189.021000	1.73620
10189.321000	1.73667
10189.621000	1.73726
10189.921000	1.73740
10190.221000	1.73783
10190.521000	1.73848
10190.821000	1.73927
10191.121000	1.73975
10191.421000	1.74015
10191.721000	1.74079
10192.021000	1.74152
10192.321000	1.74162
10192.621000	1.74253
10192.921000	1.74281
10193.221000	1.74380
10193.521000	1.74432
10193.821000	1.74489
10194.121000	1.74578
10194.421000	1.74660
10194.721000	1.74763
10195.021000	1.74879
10195.321000	1.74989
10195.621000	1.75044
10195.921000	1.75161
10196.221000	1.75322
10196.521000	1.75469
10196.821000	1.75604
10197.121000	1.75761
10197.421000	1.75970
10197.721000	1.76148
10198.021000	1.76317
10198.321000	1.76549
10198.621000	1.76728
10198.921000	1.76958
10199.221000	1.77209
10199.521000	1.77464
10199.821000	1.77769
10200.121000	1.78032
10200.421000	1.78348
10200.721000	1.78662
10201.021000	1.79077
10201.321000	1.79440
10201.621000	1.79823
10201.921000	1.80271
10202.221000	1.80821
10202.521000	1.81379
10202.821000	1.81909
10203.121000	1.82542
10203.421000	1.83222
10203.721000	1.83941
10204.021000	1.84791
10204.321000	1.85740
10204.621000	1.86809
10204.921000	1.87995
10205.221000	1.89255
10205.521000	1.90641
10205.821000	1.92200
10206.121000	1.94060
10206.421000	1.96127
10206.721000	1.98435
10207.021000	2.01085
10207.321000	2.04138
10207.621000	2.07439
10207.921000	2.11011
10208.221000	2.15216
10208.521000	2.20098
10208.821000	2.25693
10209.121000	2.32135
10209.421000	2.39528
10209.721000	2.47736
10210.021000	2.56895
10210.321000	2.66995
10210.621000	2.77774
10210.921000	2.89000
10211.221000	3.00082
10211.521000	3.10917
10211.821000	3.20780
10212.121000	3.29420
10212.421000	3.36641
10212.721000	3.42546
10213.021000	3.46498
10213.321000	3.48158
10213.621000	3.46972
10213.921000	3.43356
10214.221000	3.38181
10214.521000	3.31397
10214.821000	3.22908
10215.121000	3.13650
10215.421000	3.03732
10215.721000	2.93454
10216.021000	2.84279
10216.321000	2.76865
10216.621000	2.69948
10216.921000	2.63416
10217.221000	2.57897
10217.521000	2.53306
10217.821000	2.49279
10218.121000	2.45990
10218.421000	2.43323
10218.721000	2.40924
10219.021000	2.39067
10219.521000	2.36461
10219.721000	2.35619
10220.921000	2.32085
10221.821000	2.30848
10222.521000	2.30185
10223.321000	2.29580
10224.121000	2.28759
10224.921000	2.27560
10225.721000	2.25978
10226.521000	2.24162
10227.421000	2.22133
10228.321000	2.20254
10229.221000	2.18792
10230.121000	2.17567
10231.021000	2.16628
10231.921000	2.15730
10232.921000	2.14832
10234.021000	2.13993
10235.021000	2.13167
10236.021000	2.12305
10237.121000	2.11327
10238.121000	2.10466
10239.221000	2.09711
10240.321000	2.09108
10241.421000	2.08705
10242.521000	2.08416
10243.721000	2.08254
10244.921000	2.08233
10246.221000	2.08254
10247.321000	2.08255
10248.621000	2.08374
10249.821000	2.08494
10251.121000	2.08720
10252.421000	2.08961
10253.721000	2.09265
10255.021000	2.09619
10256.421000	2.10061
10257.821000	2.10442
10259.221000	2.10722
10260.521000	2.11137
10262.021000	2.11533
10263.421000	2.11956
10264.921000	2.12351
10266.321000	2.12720
10267.921000	2.13070
10269.421000	2.13302
10270.921000	2.13526
10272.521000	2.13833
10274.121000	2.14117
10275.621000	2.14222
10277.321000	2.14432
10278.921000	2.14526
10280.621000	2.14544
10282.221000	2.14493
10284.021000	2.14372
10285.621000	2.14123
10287.321000	2.13864
10289.121000	2.13466
10290.921000	2.13102
10292.621000	2.12718
10294.521000	2.12410
10296.321000	2.12072
10298.121000	2.11735
10300.021000	2.11427
10301.921000	2.11107
10303.721000	2.10840
10305.721000	2.10586
10307.621000	2.10222
10309.521000	2.09967
10311.621000	2.09658
10313.521000	2.09425
10315.521000	2.09125
10317.621000	2.08868
10319.621000	2.08677
10321.721000	2.08457
10323.821000	2.08360
10325.921000	2.08230
10328.021000	2.08087
10330.121000	2.08022
10332.321000	2.07977
10334.521000	2.07963
10336.721000	2.07961
10338.921000	2.08014
10341.121000	2.08081
10343.421000	2.08261
10345.721000	2.08324
10347.921000	2.08393
10350.321000	2.08481
10352.621000	2.08538
10355.021000	2.08553
10357.421000	2.08667
10359.721000	2.08734
10362.121000	2.08712
10364.521000	2.08660
10367.021000	2.08718
10369.421000	2.08668
10372.021000	2.08539
10374.421000	2.08475
10377.021000	2.08423
10379.521000	2.08304
10382.121000	2.08193
10384.621000	2.08029
10387.221000	2.07871
10389.921000	2.07727
10392.521000	2.07482
10395.221000	2.07272
10397.821000	2.07027
10400.621000	2.06792
10403.221000	2.06554
10406.021000	2.06315
10408.621000	2.06063
10411.521000	2.05804
10414.221000	2.05558
10417.021000	2.05288
10419.821000	2.05045
10422.721000	2.04795
10425.521000	2.04547
10428.521000	2.04337
10431.321000	2.04075
10434.321000	2.03879
10437.221000	2.03770
10440.121000	2.03595
10443.121000	2.03497
10446.121000	2.03306
10449.121000	2.03221
10452.121000	2.02993
10455.221000	2.02880
10458.321000	2.02776
10461.421000	2.02666
10464.421000	2.02544
10467.621000	2.02482
10470.721000	2.02400
10473.921000	2.02296
10477.021000	2.02205
10480.321000	2.02042
10483.521000	2.01914
10486.721000	2.01819
10490.021000	2.01732
10493.221000	2.01539
10496.521000	2.01363
10499.821000	2.01238
10503.221000	2.01075
10506.621000	2.00942
10509.821000	2.00704
10513.321000	2.00565
10516.721000	2.00332
10520.121000	2.00107
10523.621000	1.99916
10527.021000	1.99789
10530.521000	1.99530
10534.021000	1.99191
10537.521000	1.99050
10541.121000	1.98781
10544.621000	1.98588
10548.321000	1.98303
10551.821000	1.98029
10555.421000	1.97890
10559.121000	1.97666
10562.721000	1.97488
10566.321000	1.97233
10570.121000	1.96979
10573.821000	1.96739
10577.521000	1.96500
10581.221000	1.96224
10585.021000	1.96090
10588.821000	1.95922
10592.621000	1.95659
10596.421000	1.95471
10600.221000	1.95268
10604.121000	1.95072
10608.021000	1.94885
10611.921000	1.94708
10615.821000	1.94481
10619.721000	1.94256
10623.721000	1.94064
10627.721000	1.93951
10631.721000	1.93690
10635.621000	1.93491
10639.721000	1.93296
10643.821000	1.93122
10647.721000	1.92850
10651.921000	1.92596
10656.021000	1.92449
10660.021000	1.92185
10664.321000	1.91975
10668.521000	1.91738
10672.521000	1.91542
10676.821000	1.91261
10681.021000	1.90961
10685.221000	1.90758
10689.521000	1.90486
10693.821000	1.90195
10698.121000	1.89948
10702.421000	1.89672
10706.721000	1.89366
10711.121000	1.89108
10715.521000	1.88869
10719.821000	1.88697
10724.221000	1.88464
10728.721000	1.88123
10733.121000	1.87909
10737.621000	1.87622
10742.021000	1.87372
10746.621000	1.87092
10751.121000	1.86861
10755.621000	1.86666
10760.221000	1.86368
10764.721000	1.86206
10769.421000	1.85919
10774.021000	1.85700
10778.521000	1.85490
10783.321000	1.85370
10787.921000	1.85174
10792.621000	1.84914
10797.421000	1.84708
10802.021000	1.84431
10806.821000	1.84176
10811.621000	1.83981
10816.321000	1.83713
10821.221000	1.83570
10825.921000	1.83345
10830.821000	1.83106
10835.721000	1.82817
10840.521000	1.82559
10845.521000	1.82349
10850.321000	1.82029
10855.421000	1.81793
10860.221000	1.81570
10865.221000	1.81371
10870.321000	1.81110
10875.121000	1.80872
10880.421000	1.80599
10885.321000	1.80388
10890.421000	1.80119
10895.521000	1.79827
10900.521000	1.79578
10905.721000	1.79291
10910.821000	1.79038
10916.021000	1.78774
10921.221000	1.78491
10926.321000	1.78178
10931.721000	1.77841
10936.821000	1.77587
10942.121000	1.77339
10947.421000	1.76985
10952.721000	1.76715
10958.021000	1.76399
10963.321000	1.76087
10968.721000	1.75820
10973.921000	1.75529
10979.521000	1.75185
10984.821000	1.74909
10990.321000	1.74638
10995.721000	1.74339
11001.121000	1.74078
11006.721000	1.73775
11012.121000	1.73422
11017.721000	1.73152
11023.221000	1.72844
11028.821000	1.72548
11034.321000	1.72349
11039.921000	1.72144
11045.621000	1.71885
11051.221000	1.71600
11056.921000	1.71342
11062.421000	1.71110
11068.221000	1.70845
11073.921000	1.70616
11079.721000	1.70386
11085.421000	1.70064
11091.221000	1.69764
11096.921000	1.69500
11102.721000	1.69210
11108.621000	1.68971
11114.421000	1.68692
11120.321000	1.68454
11126.121000	1.68206
11132.121000	1.67929
11137.921000	1.67638
11143.921000	1.67374
11149.821000	1.67109
11155.821000	1.66856
11161.821000	1.66558
11167.821000	1.66293
11173.921000	1.65996
11179.921000	1.65755
11186.021000	1.65490
11192.021000	1.65251
11198.221000	1.64957
11204.221000	1.64753
11210.521000	1.64454
11216.521000	1.64218
11222.821000	1.64001
11228.921000	1.63697
11235.221000	1.63383
11241.421000	1.63159
11247.721000	1.62842
11253.921000	1.62562
11260.321000	1.62265
11266.521000	1.61914
11272.921000	1.61621
11279.321000	1.61291
11285.621000	1.60990
11292.021000	1.60676
11298.421000	1.60340
11304.821000	1.60065
11311.321000	1.59801
11317.721000	1.59493
11324.221000	1.59242
11330.721000	1.58925
11337.221000	1.58616
11343.821000	1.58298
11350.321000	1.57963
11356.921000	1.57649
11363.521000	1.57347
11370.221000	1.57064
11376.721000	1.56760
11383.521000	1.56432
11390.121000	1.56126
11396.821000	1.55832
11403.521000	1.55521
11410.321000	1.55237
11416.921000	1.54887
11423.821000	1.54543
11430.521000	1.54150
