# XDI/1.0
# Column.1: energy(ev)
# Column.2: transmission(au)
# Element.symbol: W
# Element.edge: L3
# Mono.name: Si 2 2 0
# Mono.d_spacing: 1.92
# Beamline.name: FAME
# Sample.name: Pellet of WO3â€¢(H2O) mixed with BN
# Sample.temperature: 10.0 +/- 1.0 K
# Sample.pressure: None
# Citation.doi:  https://doi.org/10.26302/SSHADE/EXPERIMENT_OP_20201209_001
# Citation.comments: Proux, Olivier (2020): W L3 edge XAS transmission and XAS fluorescence of W reference compounds at 10K. SSHADE/FAME (OSUG Data Center). Dataset/Spectral Data. https://doi.org/10.26302/SSHADE/EXPERIMENT_OP_20201209_001Schmitt, Bernard; Bollard, Philippe; Albert, Damien; Garenne, Alexandre; Bonal, Lydie; and the SSHADE partner's consortium (2018). SSHADE: 'Solid Spectroscopy Hosting Architecture of Databases and Expertise'. OSUG Data Center. Service/Database infrastructure. https://doi.org/10.26302/SSHADE
# ////
#---------
# energy(ev)	transmission(au)
10046.827000	2.04402
10052.827000	2.04550
10056.527000	2.04282
10059.627000	2.04033
10062.627000	2.03932
10065.527000	2.03721
10068.727000	2.03477
10071.627000	2.03467
10074.627000	2.03069
10077.627000	2.03109
10080.627000	2.03160
10083.727000	2.02875
10086.727000	2.02613
10089.827000	2.02360
10092.827000	2.02267
10095.827000	2.02047
10098.927000	2.01988
10101.827000	2.01799
10104.927000	2.01656
10107.827000	2.01375
10110.927000	2.01235
10113.927000	2.01079
10116.827000	2.00707
10119.927000	2.00713
10122.827000	2.00720
10125.927000	2.00326
10128.927000	2.00205
10131.927000	2.00092
10134.927000	1.99904
10137.827000	1.99895
10140.927000	1.99987
10143.827000	1.99708
10146.927000	1.99653
10149.927000	1.99567
10152.927000	1.99407
10155.927000	1.99272
10158.827000	1.98961
10161.927000	1.98929
10164.927000	1.99016
10167.927000	1.98985
10168.427000	1.99028
10168.527000	1.99115
10168.827000	1.98938
10169.127000	1.99159
10169.427000	1.98742
10169.727000	1.98892
10170.027000	1.98985
10170.327000	1.98842
10170.627000	1.98920
10170.927000	1.98853
10171.227000	1.99160
10171.527000	1.98972
10171.827000	1.98894
10172.127000	1.98964
10172.427000	1.99059
10172.727000	1.98947
10173.027000	1.99193
10173.327000	1.99041
10173.627000	1.98930
10173.927000	1.99216
10174.227000	1.99124
10174.527000	1.99194
10174.827000	1.99217
10175.127000	1.99270
10175.427000	1.99302
10175.727000	1.99298
10176.027000	1.99085
10176.327000	1.99298
10176.627000	1.99361
10176.927000	1.99165
10177.227000	1.98975
10177.527000	1.99240
10177.827000	1.99508
10178.127000	1.99499
10178.427000	1.99364
10178.727000	1.99511
10179.027000	1.99586
10179.327000	1.99468
10179.627000	1.99522
10179.927000	1.99676
10180.227000	1.99580
10180.527000	1.99612
10180.827000	1.99826
10181.127000	1.99655
10181.427000	1.99790
10181.727000	1.99792
10182.027000	1.99953
10182.327000	1.99953
10182.627000	1.99980
10182.927000	2.00143
10183.227000	2.00182
10183.527000	2.00062
10183.827000	2.00107
10184.127000	2.00241
10184.427000	2.00216
10184.727000	2.00300
10185.027000	2.00523
10185.327000	2.00296
10185.627000	2.00556
10185.927000	2.00646
10186.227000	2.00577
10186.527000	2.00832
10186.827000	2.00886
10187.127000	2.00983
10187.427000	2.01292
10187.727000	2.01086
10188.027000	2.01224
10188.327000	2.01340
10188.627000	2.01547
10188.927000	2.01637
10189.227000	2.01713
10189.527000	2.01825
10189.827000	2.02046
10190.127000	2.02121
10190.427000	2.02111
10190.727000	2.02444
10191.027000	2.02642
10191.327000	2.02601
10191.627000	2.02783
10191.927000	2.02988
10192.227000	2.03030
10192.527000	2.03349
10192.827000	2.03463
10193.127000	2.03686
10193.427000	2.04084
10193.727000	2.04205
10194.027000	2.04299
10194.327000	2.04654
10194.627000	2.04955
10194.927000	2.05156
10195.227000	2.05526
10195.527000	2.05546
10195.827000	2.06111
10196.127000	2.06337
10196.427000	2.06407
10196.727000	2.06998
10197.027000	2.07593
10197.327000	2.07625
10197.627000	2.08331
10197.927000	2.08743
10198.227000	2.09092
10198.527000	2.09600
10198.827000	2.10207
10199.127000	2.10970
10199.427000	2.11655
10199.727000	2.11927
10200.027000	2.12582
10200.327000	2.13607
10200.627000	2.14453
10200.927000	2.15226
10201.227000	2.16148
10201.527000	2.17003
10201.827000	2.18162
10202.127000	2.19222
10202.427000	2.20274
10202.727000	2.21782
10203.027000	2.23110
10203.327000	2.24405
10203.627000	2.26114
10203.927000	2.27963
10204.227000	2.29680
10204.527000	2.31851
10204.827000	2.34728
10205.127000	2.37481
10205.427000	2.40379
10205.727000	2.43453
10206.027000	2.46788
10206.327000	2.50464
10206.627000	2.54591
10206.927000	2.59734
10207.227000	2.65317
10207.527000	2.71394
10207.827000	2.78383
10208.127000	2.86042
10208.427000	2.93079
10208.727000	3.03180
10209.027000	3.13379
10209.327000	3.23708
10209.627000	3.37579
10209.927000	3.52094
10210.227000	3.67414
10210.527000	3.82934
10210.827000	4.00238
10211.127000	4.16766
10211.427000	4.31957
10211.727000	4.46576
10212.027000	4.60122
10212.327000	4.69855
10212.627000	4.75840
10212.927000	4.80122
10213.227000	4.82772
10213.527000	4.85610
10213.827000	4.86552
10214.127000	4.85140
10214.427000	4.83500
10214.727000	4.83926
10215.027000	4.84466
10215.327000	4.87504
10215.627000	4.87963
10215.927000	4.85248
10216.227000	4.80304
10216.527000	4.70077
10216.827000	4.59406
10217.127000	4.48079
10217.427000	4.35117
10217.727000	4.23002
10218.027000	4.11564
10218.327000	4.00362
10218.627000	3.89411
10218.927000	3.81206
10219.227000	3.71809
10219.527000	3.64337
10220.027000	3.52837
10220.227000	3.47643
10221.427000	3.25527
10222.327000	3.15849
10223.027000	3.09651
10223.827000	3.05414
10224.627000	3.03170
10225.427000	3.01606
10226.227000	3.00540
10227.027000	2.99097
10227.927000	2.97486
10228.827000	2.95825
10229.727000	2.94389
10230.627000	2.93254
10231.527000	2.92257
10232.527000	2.91397
10233.427000	2.90842
10234.527000	2.89792
10235.527000	2.89283
10236.527000	2.89181
10237.627000	2.88462
10238.627000	2.88339
10239.727000	2.88109
10240.827000	2.87625
10241.927000	2.87413
10243.027000	2.86691
10244.227000	2.86009
10245.427000	2.85508
10246.727000	2.84840
10247.827000	2.84458
10249.127000	2.84387
10250.327000	2.84455
10251.627000	2.85091
10252.927000	2.85985
10254.227000	2.86919
10255.527000	2.88312
10256.927000	2.90011
10258.327000	2.91645
10259.727000	2.93639
10261.027000	2.94918
10262.527000	2.96457
10263.927000	2.97950
10265.427000	2.98951
10266.827000	2.99478
10268.427000	2.99788
10269.927000	2.99813
10271.427000	2.99393
10273.027000	2.98921
10274.627000	2.98063
10276.127000	2.97351
10277.827000	2.97022
10279.427000	2.96265
10281.127000	2.96134
10282.727000	2.95763
10284.527000	2.95444
10286.127000	2.95357
10287.827000	2.95156
10289.627000	2.94852
10291.427000	2.94348
10293.127000	2.94312
10295.027000	2.93718
10296.827000	2.93537
10298.627000	2.92793
10300.527000	2.92383
10302.427000	2.91718
10304.227000	2.91114
10306.227000	2.90461
10308.127000	2.89989
10310.027000	2.89408
10312.127000	2.89476
10314.027000	2.88786
10316.027000	2.89047
10318.127000	2.88356
10320.127000	2.88793
10322.227000	2.88960
10324.327000	2.89028
10326.427000	2.88770
10328.527000	2.89038
10330.627000	2.89199
10332.827000	2.89413
10335.027000	2.89608
10337.227000	2.89618
10339.427000	2.90246
10341.627000	2.90362
10343.927000	2.90668
10346.227000	2.90917
10348.427000	2.90967
10350.827000	2.91145
10353.127000	2.90992
10355.527000	2.90927
10357.827000	2.90795
10360.227000	2.90630
10362.627000	2.90651
10365.027000	2.90792
10367.527000	2.90536
10369.927000	2.90332
10372.527000	2.90302
10374.927000	2.89994
10377.527000	2.89423
10380.027000	2.89142
10382.627000	2.88806
10385.127000	2.88541
10387.727000	2.88138
10390.427000	2.87907
10393.027000	2.87732
10395.727000	2.87295
10398.327000	2.86791
10401.127000	2.86117
10403.727000	2.86155
10406.527000	2.86007
10409.127000	2.85516
10412.027000	2.85620
10414.727000	2.85454
10417.627000	2.85400
10420.327000	2.85015
10423.227000	2.85245
10426.027000	2.85108
10429.027000	2.84745
10431.827000	2.84804
10434.827000	2.85219
10437.727000	2.85139
10440.627000	2.84608
10443.627000	2.84832
10446.627000	2.83731
10449.627000	2.84082
10452.627000	2.83972
10455.727000	2.83688
10458.827000	2.83173
10461.927000	2.83594
10464.927000	2.83341
10468.127000	2.83206
10471.227000	2.83035
10474.427000	2.82650
10477.527000	2.82432
10480.827000	2.82903
10484.027000	2.82589
10487.227000	2.82491
10490.527000	2.82202
10493.727000	2.82059
10497.127000	2.81738
10500.327000	2.80610
10503.727000	2.80773
10507.127000	2.80275
10510.327000	2.80043
10513.827000	2.79813
10517.227000	2.79583
10520.627000	2.79417
10524.127000	2.78339
10527.527000	2.79120
10531.027000	2.78948
10534.527000	2.78747
10538.027000	2.78168
10541.627000	2.78006
10545.127000	2.77835
10548.827000	2.78068
10552.327000	2.77538
10555.927000	2.77497
10559.627000	2.77418
10563.227000	2.76994
10566.827000	2.76594
10570.627000	2.76312
10574.327000	2.75978
10578.027000	2.75222
10581.727000	2.75251
10585.527000	2.74682
10589.327000	2.74890
10593.127000	2.74609
10596.927000	2.74344
10600.727000	2.74161
10604.627000	2.74167
10608.527000	2.73721
10612.427000	2.73524
10616.327000	2.73478
10620.227000	2.73275
10624.227000	2.72800
10628.127000	2.72576
10632.227000	2.72396
10636.127000	2.71985
10640.227000	2.71664
10644.327000	2.71247
10648.227000	2.71097
10652.427000	2.71088
10656.527000	2.70541
10660.527000	2.70558
10664.827000	2.70196
10669.027000	2.70049
10673.027000	2.69800
10677.327000	2.69262
10681.527000	2.69288
10685.727000	2.68853
10690.027000	2.68851
10694.327000	2.68442
10698.627000	2.68149
10702.927000	2.67788
10707.227000	2.67408
10711.627000	2.67051
10716.027000	2.67084
10720.327000	2.66754
10724.727000	2.66458
10729.227000	2.66087
10733.627000	2.65855
10738.127000	2.65025
10742.527000	2.64817
10747.127000	2.64831
10751.627000	2.64545
10756.127000	2.64473
10760.727000	2.64378
10765.327000	2.64086
10769.927000	2.63523
10774.527000	2.62717
10779.027000	2.62710
10783.827000	2.62578
10788.427000	2.62113
10793.127000	2.61648
10797.827000	2.61492
10802.527000	2.61083
10807.327000	2.60787
10812.127000	2.60507
10816.827000	2.60109
10821.727000	2.59940
10826.427000	2.59521
10831.327000	2.59202
10836.227000	2.59106
10841.027000	2.58887
10846.027000	2.58435
10850.827000	2.57957
10855.927000	2.57604
10860.727000	2.57212
10865.727000	2.56931
10870.827000	2.56548
10875.727000	2.56226
10880.827000	2.55911
10885.827000	2.55627
10890.927000	2.55227
10896.027000	2.54970
10901.027000	2.54557
10906.227000	2.54392
10911.327000	2.54090
10916.527000	2.53692
10921.727000	2.53328
10926.927000	2.53121
10932.127000	2.52759
10937.327000	2.52443
10942.627000	2.52075
10947.927000	2.51696
10953.227000	2.51270
10958.527000	2.50898
10963.827000	2.50539
10969.227000	2.50092
10974.527000	2.49865
10980.027000	2.49486
10985.327000	2.49031
10990.827000	2.48723
10996.227000	2.48356
11001.627000	2.47920
11007.227000	2.47586
11012.627000	2.47352
11018.227000	2.47025
11023.727000	2.46731
11029.327000	2.46354
11034.827000	2.46016
11040.427000	2.45783
11046.127000	2.45414
11051.727000	2.45082
11057.427000	2.44720
11062.927000	2.44326
11068.727000	2.43986
11074.427000	2.43607
11080.227000	2.43250
11085.927000	2.42831
11091.727000	2.42327
11097.427000	2.42173
11103.227000	2.41886
11109.127000	2.41511
11114.927000	2.41312
11120.827000	2.40890
11126.627000	2.40571
11132.627000	2.40239
11138.427000	2.39946
11144.427000	2.39701
11150.327000	2.39244
11156.327000	2.38956
11162.327000	2.38522
11168.327000	2.38332
11174.427000	2.37755
11180.427000	2.37307
11186.527000	2.36894
11192.527000	2.36584
11198.727000	2.36208
11204.727000	2.35895
11211.027000	2.35527
11217.027000	2.35253
11223.327000	2.35001
11229.427000	2.34620
11235.727000	2.34359
11241.927000	2.34057
11248.227000	2.33658
11254.427000	2.33218
11260.827000	2.32702
11267.027000	2.32193
11273.427000	2.31847
11279.727000	2.31421
11286.127000	2.30986
11292.527000	2.30757
11298.927000	2.30460
11305.327000	2.29998
11311.827000	2.29702
11318.227000	2.29201
11324.727000	2.28863
11331.227000	2.28327
11337.727000	2.27892
11344.327000	2.27736
11350.827000	2.27201
11357.427000	2.26725
11364.027000	2.25962
11370.727000	2.25811
11377.227000	2.25274
11384.027000	2.25020
11390.627000	2.24415
11397.327000	2.24132
11404.027000	2.23846
11410.827000	2.23017
11417.427000	2.22490
11424.327000	2.22560
11431.027000	2.22104
