# XDI/1.0
# Column.1: energy(ev)
# Column.2: fluorescence_emission(au)
# Element.symbol: Y
# Element.edge: K
# Mono.name: Si 2 2 0
# Mono.d_spacing: 1.92
# Beamline.name: FAME
# Sample.name: Yttrium(III) solution at hydrothermal conditions: Y 0.92m Cl 2.76m
# Sample.temperature: 450.0 +/- 5.0 °C
# Sample.pressure: 800.0 bar
# Citation.doi:  https://doi.org/10.26302/SSHADE/EXPERIMENT_DT_20170222_001
# Citation.comments: Louvel, Marion; Testemale, Denis; Etschmann, Barbara; Brugger, Joel (2017): Y K edge XAS fluorescence of yttrium(III) solution at hydrothermal conditions: 800 bar 30 to 450°C. SSHADE/FAME (OSUG Data Center). Dataset/Spectral Data. https://doi.org/10.26302/SSHADE/EXPERIMENT_DT_20170222_001Schmitt, Bernard; Bollard, Philippe; Albert, Damien; Garenne, Alexandre; Bonal, Lydie; and the SSHADE partner's consortium (2018). SSHADE: 'Solid Spectroscopy Hosting Architecture of Databases and Expertise'. OSUG Data Center. Service/Database infrastructure. https://doi.org/10.26302/SSHADE
# ////
#---------
# energy(ev)	fluorescence_emission(au)
16849.000381	-0.68273
16854.200381	-0.68399
16859.300381	-0.68502
16864.400381	-0.68585
16869.400382	-0.68666
16874.500382	-0.68781
16879.400382	-0.68817
16881.800382	-0.68886
16883.200382	-0.68928
16888.700382	-0.69055
16898.700382	-0.69202
16904.700382	-0.69308
16909.800383	-0.69421
16914.700383	-0.69483
16919.800383	-0.69547
16924.700383	-0.69623
16929.600383	-0.69727
16934.600383	-0.69770
16939.800383	-0.69818
16944.800383	-0.69838
16949.700383	-0.69900
16954.800384	-0.69980
16959.700384	-0.69940
16964.700384	-0.69888
16969.900384	-0.69856
16974.900384	-0.69858
16979.700384	-0.69764
16984.800384	-0.69647
16989.800384	-0.69443
16994.800384	-0.69222
17000.000385	-0.68849
17001.100385	-0.68770
17001.600385	-0.68709
17002.300385	-0.68630
17003.000385	-0.68574
17003.600385	-0.68491
17004.300385	-0.68437
17005.000385	-0.68295
17005.700385	-0.68180
17006.400385	-0.68121
17007.100385	-0.68040
17007.800385	-0.67905
17008.500385	-0.67737
17009.200385	-0.67687
17009.900385	-0.67580
17010.600385	-0.67400
17011.300385	-0.67256
17012.000385	-0.67110
17012.700385	-0.66965
17013.400385	-0.66795
17014.100385	-0.66606
17014.800385	-0.66387
17015.500385	-0.66166
17016.200385	-0.65974
17016.900385	-0.65689
17017.600385	-0.65436
17018.300385	-0.65181
17019.000385	-0.64873
17019.700385	-0.64526
17020.400385	-0.64164
17021.100385	-0.63725
17021.800385	-0.63278
17022.500385	-0.62794
17023.200385	-0.62203
17023.900385	-0.61587
17024.600385	-0.60925
17025.400385	-0.60077
17026.000385	-0.59371
17026.800385	-0.58243
17027.500385	-0.57096
17028.100385	-0.55858
17028.900385	-0.53870
17029.500385	-0.52105
17030.200385	-0.49348
17030.900385	-0.46128
17031.600385	-0.42354
17032.400385	-0.37278
17033.000385	-0.33450
17033.700385	-0.27033
17034.400385	-0.20724
17035.100385	-0.12074
17035.800385	-0.02477
17036.500385	0.08319
17037.200385	0.21010
17037.900385	0.36001
17038.600385	0.52832
17039.300385	0.72389
17040.000385	0.95536
17040.700385	1.19438
17041.400385	1.44999
17042.200386	1.75741
17042.900386	2.02160
17043.500386	2.26423
17044.200386	2.48120
17044.900386	2.65321
17045.600386	2.78399
17046.300386	2.86664
17047.000386	2.90970
17047.700386	2.91816
17048.400386	2.90263
17049.100386	2.86836
17049.800386	2.82204
17050.500386	2.77127
17051.200386	2.71694
17051.900386	2.65835
17052.600386	2.60283
17053.300386	2.54750
17054.000386	2.49768
17054.700386	2.45376
17055.400386	2.41104
17056.100386	2.37430
17056.900386	2.33200
17057.600386	2.29996
17058.300386	2.26616
17059.000386	2.23149
17059.600386	2.20638
17060.300386	2.17716
17061.000386	2.14858
17061.700386	2.12327
17062.400386	2.09998
17063.200386	2.07626
17063.800386	2.05840
17064.500386	2.03694
17065.200386	2.01719
17065.900386	2.00081
17066.600386	1.98307
17067.300386	1.96671
17068.000386	1.95012
17068.700386	1.93402
17069.400386	1.91997
17070.100386	1.90523
17070.800386	1.89247
17071.600386	1.87620
17072.300386	1.86442
17073.000386	1.85051
17073.600386	1.83897
17074.300386	1.82714
17075.000386	1.81454
17075.700386	1.80452
17076.400386	1.79851
17077.100386	1.79500
17077.800386	1.79438
17078.500386	1.79556
17079.200386	1.80170
17079.900386	1.80988
17080.600386	1.81900
17081.300386	1.83264
17082.000386	1.84631
17082.700386	1.86226
17083.400386	1.87962
17084.100386	1.89893
17084.800386	1.91951
17085.500386	1.93982
17086.200387	1.95898
17086.900387	1.97897
17087.700387	2.00065
17088.400387	2.01912
17089.100387	2.03741
17089.800387	2.05572
17090.400387	2.07262
17091.100387	2.08821
17091.800387	2.10512
17092.500387	2.12165
17093.200387	2.13331
17093.900387	2.14626
17094.600387	2.15556
17096.500387	2.17840
17097.700387	2.18593
17100.300387	2.18706
17102.200387	2.17426
17103.900387	2.15731
17105.400387	2.13682
17106.900387	2.11276
17108.500387	2.08486
17110.200387	2.05533
17111.800387	2.02466
17113.500387	1.99546
17115.100387	1.96691
17116.900387	1.93902
17118.700387	1.91431
17120.500387	1.89497
17122.200387	1.88081
17124.000387	1.86782
17125.800387	1.86081
17127.600387	1.85740
17129.400387	1.85560
17131.200388	1.85816
17133.200388	1.86339
17135.200388	1.87133
17137.100388	1.88006
17139.000388	1.89005
17140.900388	1.90174
17142.900388	1.91379
17144.900388	1.92677
17146.900388	1.93829
17149.000388	1.94809
17151.100388	1.95640
17153.200388	1.96290
17155.200388	1.96637
17157.300388	1.96748
17159.400388	1.96625
17161.500388	1.96291
17163.600388	1.95721
17166.000388	1.94911
17168.200388	1.93912
17170.300388	1.92889
17172.600388	1.91755
17174.800389	1.90548
17177.100389	1.89430
17179.400389	1.88294
17181.900389	1.87114
17184.200389	1.86291
17186.500389	1.85370
17188.900389	1.84606
17191.200389	1.83963
17193.600389	1.83478
17196.000389	1.82927
17198.600389	1.82634
17201.000389	1.82518
17203.500389	1.82396
17206.000389	1.82485
17208.500389	1.82626
17211.100389	1.82780
17213.700389	1.83087
17216.300389	1.83383
17218.900390	1.83721
17221.400390	1.84006
17224.000390	1.84383
17226.600390	1.84929
17229.500390	1.85469
17232.200390	1.85772
17234.800390	1.85904
17237.500390	1.85699
17240.200390	1.85258
17243.100390	1.84797
17246.000390	1.84255
17248.700390	1.83716
17251.500390	1.83286
17254.300390	1.82805
17257.100390	1.82421
17260.200390	1.81898
17263.100391	1.81452
17265.900391	1.81172
17268.900391	1.80738
17271.800391	1.80329
17274.800391	1.80018
17278.000391	1.79651
17280.900391	1.79374
17283.900391	1.79179
17286.900391	1.78968
17289.900391	1.78790
17293.200391	1.78524
17296.300391	1.78315
17299.300391	1.78263
17302.400391	1.78146
17305.600391	1.78066
17309.000392	1.78039
17312.100392	1.77835
17315.300392	1.77702
17318.400392	1.77561
17321.700392	1.77306
17325.200392	1.77075
17328.400392	1.76814
17331.700392	1.76661
17334.900392	1.76366
17338.400392	1.76104
17341.900392	1.75727
17345.100392	1.75459
17348.600392	1.75121
17351.800393	1.74841
17355.400393	1.74457
17359.000393	1.74151
17362.400393	1.73771
17365.800393	1.73434
17369.400393	1.73168
17373.100393	1.72831
17376.600393	1.72489
17380.200393	1.72348
17383.600393	1.72006
17387.300393	1.71740
17391.100393	1.71656
17394.600393	1.71424
17398.300394	1.71149
17401.900394	1.71023
17405.900394	1.70821
17409.500394	1.70612
17413.300394	1.70339
17416.900394	1.70167
17420.800394	1.69857
17424.600394	1.69558
17428.400394	1.69334
17432.200394	1.69097
17436.200394	1.68890
17440.100395	1.68665
17444.000395	1.68335
17447.700395	1.68196
17451.700395	1.67841
17455.800395	1.67525
17459.700395	1.67237
17463.600395	1.66907
17467.700395	1.66595
17471.900395	1.66210
17475.900395	1.66015
17479.800395	1.65657
17483.900396	1.65391
17488.200396	1.65152
17492.200396	1.64817
17496.300396	1.64563
17500.600396	1.64280
17504.900396	1.64062
17509.000396	1.63788
17513.100396	1.63480
17517.400396	1.63203
17521.700396	1.62893
17526.000396	1.62671
17530.100397	1.62349
17534.700397	1.62014
17539.000397	1.61729
17543.300397	1.61446
17547.500397	1.61193
17552.100397	1.60794
17556.500397	1.60489
17560.800397	1.60142
17565.300397	1.59790
17569.900397	1.59458
17574.400398	1.59204
17578.700398	1.58878
17583.300398	1.58492
17587.900398	1.58190
17592.400398	1.57851
17596.800398	1.57481
17601.700398	1.57180
17606.300398	1.56950
17610.800398	1.56713
17615.500398	1.56327
17620.200399	1.55934
17624.900399	1.55583
17629.400399	1.55197
17634.500399	1.54941
17639.100399	1.54640
17643.800399	1.54306
17648.600399	1.54003
17653.500399	1.53719
17658.300399	1.53355
17663.000400	1.53028
17668.100400	1.52627
17673.000400	1.52228
17677.600400	1.51937
17682.700400	1.51540
17687.700400	1.51230
17692.500400	1.50895
17697.500400	1.50487
17702.700400	1.50145
17707.600401	1.49783
17712.500401	1.49348
17717.700401	1.48982
17722.700401	1.48723
17727.700401	1.48306
17733.000401	1.48001
17738.200401	1.47635
17743.200401	1.47303
17748.300401	1.46955
17753.600402	1.46678
17758.700402	1.46343
17763.900402	1.45915
17769.400402	1.45564
17774.600402	1.45147
17779.600402	1.44867
