# XDI/1.0
# Column.1: energy(ev)
# Column.2: fluorescence_emission(au)
# Element.symbol: Zn
# Element.edge: K
# Mono.name: Si 2 2 0
# Mono.d_spacing: 1.92
# Beamline.name: FAME
# Sample.name: Frozen solution of aqueous Zn(Malate)3
# Sample.temperature: 10.0 +/- 5.0 K
# Sample.pressure: None
# Citation.doi:  https://doi.org/10.26302/SSHADE/EXPERIMENT_ST_20180418_001
# Citation.comments: Thomas, Sara; Mishra, Bhoopesh (2018): Zn K edge XAS HERFD of Zn compounds at 10K for coordination determination in complex biological systems. SSHADE/FAME (OSUG Data Center). Dataset/Spectral Data. https://doi.org/10.26302/SSHADE/EXPERIMENT_ST_20180418_001Schmitt, Bernard; Bollard, Philippe; Albert, Damien; Garenne, Alexandre; Bonal, Lydie; and the SSHADE partner's consortium (2018). SSHADE: 'Solid Spectroscopy Hosting Architecture of Databases and Expertise'. OSUG Data Center. Service/Database infrastructure. https://doi.org/10.26302/SSHADE
# ////
#---------
# energy(ev)	fluorescence_emission(au)
9598.210330	1.67477
9604.399680	1.59864
9609.669690	1.65221
9614.859580	1.60294
9619.879720	1.52642
9625.000000	1.50365
9629.929540	1.50332
9630.660060	1.53081
9631.010060	1.55876
9631.540300	1.51317
9632.080080	1.48269
9632.559780	1.53497
9633.049960	1.58440
9633.549690	1.61813
9634.070400	1.57479
9634.550090	1.55614
9635.060310	1.53241
9635.560040	1.55787
9636.039730	1.50359
9636.569980	1.54008
9637.069700	1.50304
9637.570380	1.47298
9638.030050	1.45762
9638.560300	1.64470
9639.080050	1.47266
9639.590260	1.64201
9640.080450	1.50751
9640.549660	1.60063
9641.099930	1.49598
9641.559600	1.62404
9642.060280	1.59204
9642.560010	1.48882
9643.050190	1.63221
9643.569950	1.59967
9644.140240	1.59982
9644.530300	1.65239
9645.050050	1.62424
9645.560260	1.63171
9646.080020	1.54358
9646.570210	1.48949
9647.060390	1.51279
9647.580150	1.52418
9648.050310	1.64664
9648.590090	1.54562
9649.100300	1.67912
9649.570470	1.70300
9650.079730	1.62738
9650.580410	1.72331
9651.129720	1.72599
9651.539800	1.69718
9652.050020	1.76975
9652.569770	1.76673
9653.070450	1.85457
9653.590200	2.12402
9654.069900	2.23587
9654.580120	2.28817
9655.039790	2.56456
9655.579570	2.97725
9656.089780	3.36808
9656.559940	3.95925
9657.059670	4.76396
9657.580380	5.79218
9658.120160	7.82228
9658.550260	10.37380
9659.099580	15.78406
9659.580230	25.88646
9660.079960	54.28708
9660.590170	124.62496
9661.120410	253.76696
9661.529540	413.24608
9662.050250	645.39135
9662.579540	975.36855
9663.089750	1455.51187
9663.579940	2148.60001
9664.059640	3097.59033
9664.620400	4220.05307
9665.040020	5078.14282
9665.559770	5897.51024
9666.080470	6600.64691
9666.560170	7135.16197
9667.070390	7512.69699
9667.579650	7611.63688
9668.160440	7449.32666
9668.530460	7186.88665
9669.070240	6683.22326
9669.590000	6117.84826
9670.100210	5531.92639
9670.570370	4987.64335
9671.050070	4513.25506
9671.600340	4104.97807
9672.060010	3827.76052
9672.579770	3638.96049
9673.080440	3520.63009
9673.580170	3472.20579
9674.059870	3447.94116
9674.579620	3420.68019
9675.120350	3371.07366
9675.539970	3303.12168
9676.059720	3202.94518
9676.569940	3102.36037
9677.100180	3015.89990
9677.599910	2936.01947
9678.110120	2880.68617
9678.540230	2843.95628
9679.070470	2831.31222
9679.599760	2826.46985
9680.080410	2836.23694
9680.569650	2858.78686
9681.059840	2886.80779
9681.639670	2918.70228
9682.040210	2951.74939
9682.570460	2982.46448
9683.070180	3006.03590
9683.560370	3005.89053
9684.089660	3003.37108
9684.590340	2982.23973
9685.139660	2941.16054
9685.509680	2905.37826
9686.059950	2841.12099
9686.599730	2779.48423
9687.109950	2722.43008
9687.589650	2662.46104
9688.070300	2607.32898
9688.639640	2546.78101
9689.049720	2497.57372
9689.570430	2441.92926
9690.070150	2397.07452
9690.569880	2354.21176
9691.080090	2323.13291
9691.590310	2292.40790
9692.110060	2275.33745
9692.549710	2260.77555
9693.050380	2251.47364
9693.590160	2254.40066
9694.089890	2253.49228
9694.569590	2265.74289
9695.070270	2282.39163
9695.630070	2312.75229
9696.049690	2338.04949
9696.599960	2370.22912
9697.099690	2403.17212
9697.580340	2441.44534
9698.060040	2481.35661
9698.610310	2525.90746
9699.150090	2570.76532
9699.529650	2612.89333
9700.050350	2660.08187
9701.299670	2779.64650
9703.960420	3026.32786
9705.169680	3140.44843
9706.620220	3250.41686
9707.859990	3328.13465
9709.329610	3408.69663
9710.559840	3453.00213
9712.059970	3500.32147
9713.500020	3525.55517
9714.839940	3526.03526
9716.460230	3516.12145
9717.829700	3481.37789
9719.400410	3450.32920
9720.849990	3406.58799
9722.379680	3360.92445
9723.950390	3309.62885
9725.549700	3260.23290
9727.160450	3218.92482
9728.710170	3185.05903
9730.380060	3147.49615
9731.989860	3119.62690
9733.730320	3085.21956
9735.340120	3062.95096
9737.099650	3036.90879
9738.789560	3009.77734
9740.590100	2986.35131
9742.259980	2964.93227
9744.090080	2933.56941
9745.900150	2911.12708
9747.750280	2903.74068
9749.509810	2893.09943
9751.449580	2886.97857
9753.190040	2892.75717
9755.260470	2899.19370
9757.060050	2915.97765
9759.019850	2928.22556
9760.930060	2947.25826
9762.999530	2967.21338
9765.000340	2986.25087
9766.839980	3005.37496
9769.040110	3024.35350
9770.899770	3040.26409
9773.130420	3063.35183
9775.119780	3073.42744
9777.350430	3081.92515
9779.379840	3091.11556
9781.399730	3091.69152
9783.679960	3091.09485
9785.949710	3082.05457
9787.960050	3076.99388
9790.349960	3070.92120
9792.369840	3062.34209
9794.899940	3061.50496
9796.979900	3063.70665
9799.269680	3050.40341
9801.630020	3043.84090
9803.919790	3047.07160
9806.309700	3045.09928
9808.679580	3042.74625
9810.959820	3039.33185
9813.489910	3029.56612
9815.970420	3023.54924
9818.260190	3015.10413
9820.710180	3006.10054
9823.260310	2997.81852
9825.860020	2987.62244
9828.200340	2981.29118
9830.829620	2969.36811
9833.370210	2957.00880
9835.949900	2953.47824
9838.480000	2945.23697
9841.119770	2941.76688
9843.879700	2936.94291
9846.340180	2930.05023
9849.040030	2932.00926
9851.799960	2929.46970
9854.559900	2933.81992
9857.179640	2937.55570
9859.990120	2933.42965
9862.730030	2938.85102
9865.489960	2939.97828
9868.289950	2944.35062
9871.089940	2945.47663
9874.110220	2946.56715
9876.720430	2943.07306
9879.759790	2945.31451
9882.579800	2946.86681
9885.530470	2942.17724
9888.429640	2939.25729
9891.409870	2938.29850
9894.499780	2933.47323
9897.339820	2931.06629
9900.259970	2930.73617
9903.459550	2928.32987
9906.439780	2919.41575
9909.620290	2916.49169
9912.500380	2910.44844
9915.829660	2900.84173
9918.669700	2896.31841
9921.979900	2891.47987
9925.189970	2884.34417
9928.250310	2882.48745
9931.449890	2879.02689
9934.769630	2872.51225
9937.939640	2865.75842
9941.149710	2864.98435
9944.649700	2857.42385
9947.680470	2851.87640
9951.040270	2850.63555
9954.509740	2847.58990
9957.679750	2845.60266
9961.070060	2845.21656
9964.509960	2844.78498
9967.960360	2846.44904
9971.199990	2838.14745
9974.769590	2832.63477
9978.309630	2829.79308
9981.670380	2827.16756
9985.210420	2828.10682
9988.590240	2824.51133
9992.259980	2820.54985
9995.789530	2819.19796
9999.320030	2812.01769
10002.900100	2809.08512
10006.699600	2809.41766
10010.199500	2806.32296
10013.699500	2799.98809
10017.600100	2798.92805
10021.100000	2796.35589
10024.999600	2793.19955
10028.599700	2784.38636
10032.400100	2787.36995
10036.199600	2786.16590
10040.000000	2778.92767
10043.700200	2781.00337
10047.599800	2772.33884
10051.199900	2772.97245
10055.299800	2765.56036
10059.100200	2762.89404
10062.999700	2760.50410
10067.000400	2753.32855
10070.799800	2750.47450
10074.799500	2749.74083
10078.800200	2745.47062
10082.699800	2740.36927
10086.899800	2741.84810
10090.700100	2735.87802
10094.900100	2729.16986
10098.899800	2728.63661
10102.899600	2728.42375
10107.099500	2718.32190
10111.200300	2718.45030
10115.400300	2712.14620
10119.600300	2708.08383
10123.800300	2712.74019
10127.900100	2707.50874
10132.100100	2701.12544
10136.500400	2701.63113
10140.600200	2694.80672
10144.900300	2693.14618
10149.100300	2688.31195
10153.499600	2686.15460
10157.799700	2681.93015
10162.300100	2680.52466
10166.500100	2677.99518
10170.900300	2675.51725
10175.299600	2671.88232
10179.699900	2666.07318
10184.300400	2669.26532
10188.599600	2662.47918
10193.300200	2662.86808
10197.600400	2656.93616
10202.099800	2656.37211
10206.800500	2656.62014
10211.199800	2662.48704
10215.900400	2647.38867
10220.399900	2637.40929
10225.099600	2634.05084
10229.600000	2626.49172
10234.299700	2626.05728
10239.000300	2631.04740
10243.700000	2623.58136
10248.399700	2622.24142
