# XDI/1.0
# Column.1: energy(ev)
# Column.2: fluorescence_emission(au)
# Element.symbol: Br
# Element.edge: K
# Mono.name: Si 2 2 0
# Mono.d_spacing: 1.92
# Beamline.name: FAME
# Sample.name: Gallium bromide solution in hydrothermal conditions: Ga3+ 0.017m, Br- 0.051m
# Sample.temperature: 650.0 +/- 0.1 K
# Sample.pressure: 300.0 +/- 0.5 bar
# Citation.doi:  https://doi.org/10.26302/SSHADE/EXPERIMENT_DT_20180710_001
# Citation.comments: Da Silva, CÃ©cile; Testemale, Denis; Hazemann, Jean-Louis; Proux, Olivier (2006): Br K edge XAS of gallium bromide solution in hydrothermal conditions at 300bars and between 300 and 650K. SSHADE/FAME (OSUG Data Center). Dataset/Spectral Data. https://doi.org/10.26302/SSHADE/EXPERIMENT_DT_20180710_001Schmitt, Bernard; Bollard, Philippe; Albert, Damien; Garenne, Alexandre; Bonal, Lydie; and the SSHADE partner's consortium (2018). SSHADE: 'Solid Spectroscopy Hosting Architecture of Databases and Expertise'. OSUG Data Center. Service/Database infrastructure. https://doi.org/10.26302/SSHADE
# ////
#---------
# energy(ev)	fluorescence_emission(au)
13304.300301	0.01882
13309.700301	0.01869
13314.700301	0.01862
13319.800301	0.01857
13325.000301	0.01860
13329.900302	0.01865
13335.000302	0.01860
13340.000302	0.01843
13345.000302	0.01862
13349.900302	0.01862
13355.000302	0.01869
13360.000302	0.01862
13364.900302	0.01883
13369.900302	0.01896
13375.000303	0.01910
13379.900303	0.01928
13384.900303	0.01950
13390.000303	0.01976
13394.900303	0.02010
13400.000303	0.02043
13404.900303	0.02091
13410.100303	0.02150
13414.900303	0.02211
13420.000304	0.02287
13424.900304	0.02396
13430.000304	0.02519
13434.900304	0.02698
13435.400304	0.02708
13435.900304	0.02736
13436.400304	0.02758
13436.900304	0.02768
13437.400304	0.02792
13437.900304	0.02813
13438.400304	0.02849
13438.900304	0.02864
13439.400304	0.02886
13439.900304	0.02913
13440.400304	0.02933
13440.900304	0.02961
13441.400304	0.02996
13441.900304	0.03017
13442.400304	0.03059
13442.900304	0.03082
13443.400304	0.03124
13444.000304	0.03169
13444.400304	0.03197
13445.000304	0.03234
13445.400304	0.03266
13445.900304	0.03305
13446.400304	0.03339
13446.900304	0.03385
13447.400304	0.03431
13447.900304	0.03482
13448.400304	0.03514
13448.900304	0.03564
13449.400304	0.03625
13449.900304	0.03671
13450.400304	0.03742
13450.900304	0.03795
13451.400304	0.03870
13451.900304	0.03934
13452.400304	0.03995
13452.900304	0.04067
13453.400304	0.04158
13453.900304	0.04223
13454.500304	0.04320
13454.900304	0.04396
13455.400304	0.04494
13455.900304	0.04589
13456.400304	0.04713
13456.900304	0.04816
13457.400304	0.04936
13457.900304	0.05070
13458.400304	0.05197
13458.900304	0.05357
13459.400304	0.05524
13459.900304	0.05693
13460.400304	0.05875
13460.900305	0.06090
13461.400305	0.06314
13461.900305	0.06562
13462.400305	0.06844
13462.900305	0.07116
13463.400305	0.07439
13463.900305	0.07784
13464.400305	0.08191
13464.900305	0.08623
13465.400305	0.09148
13465.900305	0.09737
13466.400305	0.10406
13466.900305	0.11197
13467.400305	0.12107
13467.900305	0.13215
13468.400305	0.14591
13468.900305	0.16249
13469.400305	0.18408
13469.900305	0.21266
13470.400305	0.24972
13470.900305	0.30271
13471.400305	0.37235
13471.900305	0.46659
13472.400305	0.58057
13473.000305	0.72228
13473.400305	0.83759
13473.900305	0.96447
13474.400305	1.10041
13475.000305	1.21392
13475.400305	1.27654
13475.900305	1.34231
13476.400305	1.39045
13476.900305	1.42407
13477.400305	1.44852
13477.900305	1.46267
13478.400305	1.46710
13478.900305	1.46317
13479.400305	1.45063
13479.900305	1.42991
13480.400305	1.40402
13480.900305	1.37410
13481.400305	1.34282
13482.000305	1.30748
13482.400305	1.28693
13482.900305	1.25983
13483.400305	1.24044
13483.900305	1.22677
13484.400305	1.21506
13484.900305	1.20921
13485.400305	1.20748
13485.900305	1.20916
13486.400305	1.21314
13487.000305	1.22002
13487.400305	1.22688
13487.900305	1.23480
13488.400305	1.24257
13488.900305	1.25185
13489.400305	1.26060
13489.900305	1.26949
13490.400305	1.27678
13490.900305	1.28387
13491.400305	1.29099
13491.900305	1.29707
13492.800305	1.30655
13494.500305	1.31799
13495.300305	1.32018
13496.200305	1.32241
13497.200305	1.32267
13498.100305	1.32304
13499.000305	1.32136
13500.000305	1.31876
13501.000305	1.31455
13502.100305	1.31071
13503.100305	1.30581
13504.200305	1.29966
13505.300306	1.29372
13506.400306	1.28806
13507.500306	1.28167
13508.700306	1.27556
13509.800306	1.27116
13510.900306	1.26671
13512.200306	1.26350
13513.400306	1.26119
13514.600306	1.25885
13515.900306	1.25771
13517.100306	1.25662
13518.300306	1.25691
13519.700306	1.25709
13521.000306	1.25718
13522.400306	1.25727
13523.700306	1.25796
13525.100306	1.25844
13526.500306	1.25900
13527.900306	1.25801
13529.400306	1.25698
13530.900306	1.25629
13532.300306	1.25397
13533.800306	1.25319
13535.300306	1.25177
13536.800306	1.25053
13538.400306	1.24807
13540.000306	1.24593
13541.600306	1.24399
13543.200306	1.24217
13544.800306	1.24009
13546.400306	1.23886
13548.100306	1.23704
13549.800307	1.23559
13551.400307	1.23481
13553.200307	1.23380
13554.900307	1.23253
13556.700307	1.23238
13558.400307	1.23107
13560.300307	1.23102
13562.000307	1.23131
13564.000307	1.23074
13565.800307	1.23075
13567.600307	1.23145
13569.500307	1.23221
13571.400307	1.23137
13573.400307	1.23168
13575.400307	1.23057
13577.300307	1.23062
13579.400307	1.23046
13581.300307	1.23014
13583.300307	1.22931
13585.300307	1.22920
13587.400307	1.22851
13589.500307	1.22808
13591.600307	1.22751
13593.700308	1.22662
13595.800308	1.22680
13598.100308	1.22698
13600.200308	1.22582
13602.500308	1.22651
13604.600308	1.22712
13606.800308	1.22636
13609.100308	1.22573
13611.400308	1.22613
13613.600308	1.22669
13615.900308	1.22630
13618.300308	1.22669
13620.600308	1.22588
13623.000308	1.22523
13625.300308	1.22566
13627.800308	1.22438
13630.200308	1.22329
13632.600308	1.22347
13635.000308	1.22214
13637.600309	1.22150
13640.000309	1.22055
13642.600309	1.21955
13645.000309	1.21832
13647.600309	1.21764
13650.200309	1.21647
13652.800309	1.21512
13655.400309	1.21426
13658.100309	1.21290
13660.700309	1.21290
13663.300309	1.21179
13666.000309	1.21115
13668.700309	1.21093
13671.400309	1.21032
13674.200309	1.20963
13677.000309	1.20923
13679.700309	1.20890
13682.400310	1.20835
13685.300310	1.20911
13688.200310	1.20856
13691.000310	1.20866
13693.800310	1.20885
13696.800310	1.20838
13699.700310	1.20889
13702.600310	1.20824
13705.500310	1.20767
13708.500310	1.20763
13711.500310	1.20686
13714.500310	1.20635
13717.500310	1.20666
13720.600310	1.20516
13723.500310	1.20403
13726.800311	1.20408
13729.800311	1.20341
13732.900311	1.20246
13736.100311	1.20199
13739.200311	1.20154
13742.300311	1.19934
13745.600311	1.19854
13748.800311	1.19856
13751.900311	1.19729
13755.200311	1.19685
13758.500311	1.19597
13761.800311	1.19511
13765.100311	1.19437
13768.500311	1.19380
13771.800312	1.19352
13775.200312	1.19231
13778.600312	1.19245
13781.900312	1.19218
13785.400312	1.19215
13788.800312	1.19150
13792.100312	1.19098
13795.700312	1.19014
13799.200312	1.18988
13802.700312	1.18907
13806.300312	1.18885
13809.800312	1.18785
13813.300312	1.18735
13817.000313	1.18588
13820.500313	1.18559
13824.200313	1.18471
13827.900313	1.18376
13831.500313	1.18315
13835.300313	1.18238
13838.900313	1.18180
13842.600313	1.18051
13846.400313	1.17946
13850.100313	1.17877
13853.800313	1.17802
13857.600313	1.17786
13861.500314	1.17616
13865.300314	1.17551
13869.100314	1.17459
13873.000314	1.17370
13876.900314	1.17257
13880.800314	1.17143
13884.800314	1.17113
13888.800314	1.16967
13892.700314	1.16945
13896.600314	1.16911
13900.600314	1.16773
13904.600315	1.16732
13908.800315	1.16616
13912.800315	1.16565
13916.900315	1.16499
13921.000315	1.16373
13924.900315	1.16359
13929.200315	1.16267
13933.400315	1.16195
13937.500315	1.16077
13941.700315	1.16019
13946.000315	1.15863
13950.300316	1.15786
13954.400316	1.15731
13958.700316	1.15646
13962.900316	1.15542
13967.300316	1.15479
13971.700316	1.15334
13976.000316	1.15196
13980.400316	1.15162
13984.700316	1.15039
13989.100316	1.14985
13993.600317	1.14856
13997.900317	1.14746
14002.500317	1.14704
14006.800317	1.14594
14011.500317	1.14553
14015.900317	1.14418
14020.400317	1.14374
14024.900317	1.14274
14029.500317	1.14142
14034.200317	1.14098
14038.700318	1.14006
14043.400318	1.13977
14048.000318	1.13840
14052.700318	1.13772
14057.400318	1.13718
14062.100318	1.13598
14066.800318	1.13533
14071.500318	1.13417
14076.300318	1.13325
14081.100319	1.13208
14085.900319	1.13160
14090.600319	1.13055
14095.500319	1.13013
14100.200319	1.12936
14105.200319	1.12785
14110.100319	1.12673
14115.000319	1.12580
14120.000319	1.12533
14124.900320	1.12437
14129.900320	1.12352
14134.800320	1.12236
14139.800320	1.12160
14144.900320	1.12103
14150.000320	1.11984
14154.900320	1.11941
14160.100320	1.11826
14164.900320	1.11716
14170.300321	1.11606
14175.300321	1.11592
14180.600321	1.11499
14185.700321	1.11347
14191.000321	1.11282
14196.000321	1.11188
14201.300321	1.11077
14206.500321	1.10969
14211.900321	1.10871
14217.100322	1.10811
14222.500322	1.10700
14227.700322	1.10633
14233.100322	1.10547
14238.400322	1.10439
14243.900322	1.10341
14249.200322	1.10258
14254.700322	1.10168
14260.000323	1.10047
14265.600323	1.09880
14271.000323	1.09856
14276.500323	1.09745
14281.900323	1.09659
14287.600323	1.09590
14293.100323	1.09478
14298.800323	1.09342
14304.300324	1.09204
14309.900324	1.09109
14315.500324	1.09012
14321.200324	1.08891
14326.900324	1.08745
14332.500324	1.08675
14338.200324	1.08579
14343.900324	1.08447
14349.600325	1.08373
14355.400325	1.08332
14361.200325	1.08233
14367.000325	1.08083
14372.900325	1.07982
14378.600325	1.07847
14384.600325	1.07743
14390.300326	1.07624
14396.300326	1.07545
14402.200326	1.07475
14408.100326	1.07415
14414.000326	1.07317
14419.900326	1.07193
14426.100326	1.07086
14432.000326	1.06969
14438.100327	1.06870
14444.000327	1.06767
