# XDI/1.0
# Column.1: energy(ev)
# Column.2: fluorescence_emission(au)
# Element.symbol: Ga
# Element.edge: K
# Mono.name: Si 2 2 0
# Mono.d_spacing: 1.92
# Beamline.name: FAME
# Sample.name: Gallium bromide solution in hydrothermal conditions: Ga3+ 0.17m, Br- 0.51m
# Sample.temperature: 370.0 +/- 0.1 K
# Sample.pressure: 300.0 +/- 0.5 bar
# Citation.doi:  https://doi.org/10.26302/SSHADE/EXPERIMENT_DT_20180710_002
# Citation.comments: Da Silva, CÃ©cile; Testemale, Denis; Hazemann, Jean-Louis; Proux, Olivier (2006): Ga K edge XAS fluorescence of gallium bromide solution in hydrothermal conditions at 300bars and between 300 and 670K. SSHADE/FAME (OSUG Data Center). Dataset/Spectral Data. https://doi.org/10.26302/SSHADE/EXPERIMENT_DT_20180710_002Schmitt, Bernard; Bollard, Philippe; Albert, Damien; Garenne, Alexandre; Bonal, Lydie; and the SSHADE partner's consortium (2018). SSHADE: 'Solid Spectroscopy Hosting Architecture of Databases and Expertise'. OSUG Data Center. Service/Database infrastructure. https://doi.org/10.26302/SSHADE
# ////
#---------
# energy(ev)	fluorescence_emission(au)
10229.600231	0.01909
10234.900232	0.01885
10239.900232	0.01864
10245.000232	0.01860
10250.000232	0.01827
10254.900232	0.01819
10260.000232	0.01795
10265.000232	0.01817
10270.000232	0.01802
10274.900232	0.01772
10280.000233	0.01788
10285.000233	0.01779
10290.100233	0.01784
10295.000233	0.01790
10300.100233	0.01813
10305.000233	0.01823
10310.000233	0.01848
10315.000233	0.01885
10320.100233	0.01934
10325.000234	0.02010
10330.000234	0.02076
10335.000234	0.02195
10340.000234	0.02353
10344.900234	0.02551
10350.100234	0.02873
10355.000234	0.03344
10360.100234	0.04182
10360.400234	0.04296
10360.900234	0.04450
10361.400234	0.04576
10361.900234	0.04721
10362.500234	0.04867
10363.000234	0.05048
10363.400234	0.05205
10363.900234	0.05379
10364.500234	0.05643
10364.900234	0.05873
10365.400234	0.06140
10365.900234	0.06428
10366.400235	0.06747
10366.900235	0.07090
10367.500235	0.07512
10368.000235	0.07932
10368.400235	0.08361
10368.900235	0.08906
10369.500235	0.09691
10369.900235	0.10309
10370.400235	0.11179
10370.900235	0.12225
10371.500235	0.13660
10372.000235	0.15269
10372.400235	0.16966
10373.000235	0.20010
10373.500235	0.23220
10374.000235	0.28158
10374.400235	0.33118
10375.000235	0.39888
10375.500235	0.49655
10376.000235	0.61098
10376.400235	0.75329
10377.000235	1.02473
10377.400235	1.26721
10377.900235	1.64154
10378.400235	1.92937
10379.000235	2.20190
10379.500235	2.39043
10379.900235	2.45300
10380.400235	2.46243
10380.900235	2.40953
10381.400235	2.33709
10381.900235	2.23738
10382.400235	2.15248
10382.900235	2.03871
10383.400235	1.94131
10384.000235	1.82883
10384.500235	1.72093
10384.900235	1.63442
10385.400235	1.54100
10386.000235	1.43858
10386.500235	1.35610
10386.900235	1.29443
10387.400235	1.22286
10387.900235	1.16109
10388.400235	1.11475
10389.000235	1.07691
10389.400235	1.05927
10390.000235	1.04183
10390.400235	1.03188
10391.000235	1.02705
10391.500235	1.02467
10392.000235	1.02590
10392.400235	1.02749
10392.900235	1.03064
10393.500235	1.03497
10393.900235	1.03681
10394.500235	1.04044
10395.000235	1.04216
10395.500235	1.04265
10395.900235	1.04262
10396.400235	1.04083
10396.900235	1.03787
10397.500235	1.03476
10397.900235	1.03006
10398.400235	1.02573
10398.900235	1.01966
10399.400235	1.01350
10399.900235	1.00577
10400.400235	0.99862
10400.900235	0.99005
10401.500235	0.98182
10401.900235	0.97379
10402.400235	0.96435
10402.900235	0.95364
10403.500235	0.94334
10403.900235	0.93369
10404.400235	0.92324
10405.000235	0.91101
10405.500235	0.90165
10406.000235	0.89175
10406.400235	0.88354
10406.900235	0.87491
10407.400235	0.86610
10408.000235	0.85780
10408.400235	0.85208
10408.900235	0.84541
10409.500235	0.83984
10409.900235	0.83600
10410.400235	0.83321
10410.900236	0.83236
10411.500236	0.83345
10412.000236	0.83678
10412.500236	0.84109
10413.000236	0.84820
10413.500236	0.85765
10413.900236	0.86658
10414.400236	0.87983
10414.900236	0.89251
10415.500236	0.91142
10416.000236	0.92824
10416.400236	0.94340
10417.000236	0.96450
10417.500236	0.98446
10417.900236	1.00177
10418.400236	1.01980
10419.000236	1.04236
10420.400236	1.09681
10423.300236	1.17871
10424.700236	1.20043
10426.200236	1.21293
10427.700236	1.21919
10429.300236	1.22522
10430.800236	1.22656
10432.300236	1.22740
10433.900236	1.22931
10435.500236	1.22976
10437.100236	1.22889
10438.800236	1.22647
10440.400236	1.22165
10442.100236	1.21491
10443.800236	1.20577
10445.600236	1.19528
10447.300236	1.18417
10449.000236	1.17127
10450.800236	1.15792
10452.600236	1.14428
10454.400236	1.13165
10456.200237	1.11803
10458.100237	1.10452
10459.900237	1.09214
10461.800237	1.08128
10463.700237	1.07147
10465.600237	1.06360
10467.500237	1.05791
10469.500237	1.05443
10471.500237	1.05434
10473.500237	1.05496
10475.600237	1.05761
10477.500237	1.06177
10479.600237	1.06741
10481.700237	1.07386
10483.700237	1.07889
10485.900237	1.08652
10488.000237	1.09247
10490.100237	1.09880
10492.300237	1.10600
10494.500237	1.11160
10496.700237	1.11706
10498.900237	1.12223
10501.100238	1.12765
10503.400238	1.13281
10505.700238	1.13928
10508.000238	1.14488
10510.300238	1.15067
10512.600238	1.15506
10515.000238	1.15547
10517.300238	1.15477
10519.800238	1.15335
10522.100238	1.15186
10524.500238	1.15026
10527.000238	1.14735
10529.500238	1.14504
10532.000238	1.14101
10534.400238	1.13775
10537.100238	1.13319
10539.600238	1.12914
10542.100238	1.12480
10544.700239	1.12141
10547.300239	1.11844
10549.900239	1.11532
10552.500239	1.11357
10555.200239	1.11283
10557.900239	1.11234
10560.600239	1.11082
10563.300239	1.11053
10566.000239	1.10923
10568.700239	1.10935
10571.600239	1.10907
10574.300239	1.10991
10577.100239	1.11037
10579.900239	1.11130
10582.800239	1.11122
10585.600239	1.11284
10588.500240	1.11369
10591.400240	1.11474
10594.300240	1.11566
10597.300240	1.11695
10600.300240	1.11884
10603.200240	1.11917
10606.200240	1.12119
10609.200240	1.12340
10612.300240	1.12429
10615.300240	1.12515
10618.400240	1.12682
10621.500240	1.12811
10624.600240	1.12881
10627.700240	1.12961
10630.800240	1.12904
10634.000241	1.12856
10637.200241	1.12850
10640.400241	1.12703
10643.700241	1.12662
10646.900241	1.12530
10650.100241	1.12414
10653.400241	1.12100
10656.700241	1.12007
10660.000241	1.11852
10663.300241	1.11692
10666.700241	1.11559
10670.000241	1.11438
10673.500241	1.11323
10677.000242	1.11214
10680.300242	1.11065
10683.800242	1.10998
10687.200242	1.10989
10690.700242	1.10976
10694.200242	1.10913
10697.700242	1.10966
10701.300242	1.10979
10704.800242	1.11080
10708.400242	1.11035
10712.100242	1.10984
10715.700242	1.11100
10719.300242	1.11130
10723.000243	1.11182
10726.600243	1.11123
10730.300243	1.11196
10734.000243	1.11140
10737.700243	1.11233
10741.500243	1.11235
10745.300243	1.11266
10749.100243	1.11292
10752.900243	1.11256
10756.700243	1.11233
10760.500243	1.11228
10764.400244	1.11174
10768.200244	1.11240
10772.200244	1.11150
10776.100244	1.11175
10780.000244	1.11092
10784.000244	1.11021
10788.000244	1.10934
10791.900244	1.10921
10796.000244	1.10839
10800.000244	1.10758
10804.000244	1.10721
10808.100244	1.10599
10812.200245	1.10571
10816.300245	1.10486
10820.500245	1.10359
10824.600245	1.10354
10828.700245	1.10307
10833.000245	1.10292
10837.100245	1.10242
10841.300245	1.10226
10845.700245	1.10135
10849.900245	1.10106
10854.100246	1.10110
10858.500246	1.10069
10862.800246	1.10046
10867.100246	1.10087
10871.400246	1.10069
10875.800246	1.10093
10880.200246	1.10051
10884.600246	1.10108
10889.100246	1.10056
10893.500246	1.10129
10898.000247	1.10040
10902.500247	1.10089
10906.900247	1.10102
10911.500247	1.09974
10916.000247	1.10029
10920.600247	1.09989
10925.300247	1.09938
10929.700247	1.09895
10934.300247	1.09780
10939.000247	1.09786
10943.700248	1.09768
10948.400248	1.09681
10953.000248	1.09714
10957.800248	1.09612
10962.500248	1.09591
10967.200248	1.09547
10972.000248	1.09527
10976.800248	1.09399
10981.600248	1.09392
10986.500249	1.09408
10991.300249	1.09366
10996.100249	1.09299
11001.000249	1.09275
11006.000249	1.09277
11010.800249	1.09217
11015.700249	1.09168
11020.700249	1.09171
11025.700249	1.09131
11030.800250	1.09134
11035.700250	1.09150
11040.700250	1.09083
11045.800250	1.09167
11050.900250	1.08982
11055.900250	1.09091
11061.100250	1.09041
11066.200250	1.09070
11071.300250	1.09023
11076.500251	1.08969
11081.600251	1.09027
11086.900251	1.08954
11092.100251	1.08964
11097.400251	1.08924
11102.600251	1.08967
11107.900251	1.09029
11113.200251	1.09106
11118.500252	1.09063
11123.800252	1.08964
11129.100252	1.08933
11134.600252	1.08855
11140.000252	1.08871
11145.400252	1.08877
11150.800252	1.08826
11156.300252	1.08819
11161.700252	1.08728
11167.200253	1.08714
11172.700253	1.08628
11178.300253	1.08617
11183.800253	1.08650
11189.300253	1.08536
11194.900253	1.08549
11200.500253	1.08434
11206.100253	1.08504
11211.700254	1.08430
11217.500254	1.08422
11223.100254	1.08418
11228.800254	1.08363
11234.500254	1.08328
11240.200254	1.08331
11246.000254	1.08374
11251.800255	1.08258
11257.500255	1.08301
11263.400255	1.08253
11269.200255	1.08181
11275.000255	1.08173
11280.900255	1.08149
11286.800255	1.08144
11292.700255	1.08171
11298.500256	1.08118
11304.600256	1.08068
11310.500256	1.08006
11316.500256	1.08042
11322.500256	1.08019
11328.500256	1.07913
