# XDI/1.0
# Column.1: energy(ev)
# Column.2: fluorescence_emission(au)
# Element.symbol: Ga
# Element.edge: K
# Mono.name: Si 2 2 0
# Mono.d_spacing: 1.92
# Beamline.name: FAME
# Sample.name: Gallium bromide solution in hydrothermal conditions: Ga3+ 0.017m, Br- 0.051m
# Sample.temperature: 630.0 +/- 0.1 K
# Sample.pressure: 300.0 +/- 0.5 bar
# Citation.doi:  https://doi.org/10.26302/SSHADE/EXPERIMENT_DT_20180710_002
# Citation.comments: Da Silva, CÃ©cile; Testemale, Denis; Hazemann, Jean-Louis; Proux, Olivier (2006): Ga K edge XAS fluorescence of gallium bromide solution in hydrothermal conditions at 300bars and between 300 and 670K. SSHADE/FAME (OSUG Data Center). Dataset/Spectral Data. https://doi.org/10.26302/SSHADE/EXPERIMENT_DT_20180710_002Schmitt, Bernard; Bollard, Philippe; Albert, Damien; Garenne, Alexandre; Bonal, Lydie; and the SSHADE partner's consortium (2018). SSHADE: 'Solid Spectroscopy Hosting Architecture of Databases and Expertise'. OSUG Data Center. Service/Database infrastructure. https://doi.org/10.26302/SSHADE
# ////
#---------
# energy(ev)	fluorescence_emission(au)
10229.600231	0.04204
10234.800232	0.04141
10239.900232	0.04071
10245.000232	0.03999
10250.000232	0.03958
10254.900232	0.03882
10260.000232	0.03815
10265.000232	0.03758
10270.000232	0.03706
10274.900232	0.03639
10280.000233	0.03591
10285.000233	0.03547
10290.100233	0.03495
10295.000233	0.03451
10300.100233	0.03385
10305.000233	0.03380
10310.000233	0.03319
10315.000233	0.03304
10320.000233	0.03239
10325.100234	0.03212
10330.000234	0.03181
10335.000234	0.03169
10340.000234	0.03155
10345.000234	0.03133
10350.100234	0.03151
10355.000234	0.03185
10360.000234	0.03266
10361.000234	0.03308
10362.000234	0.03340
10363.000234	0.03390
10364.000234	0.03444
10365.000234	0.03516
10365.900234	0.03580
10367.000235	0.03718
10368.000235	0.03863
10369.000235	0.04069
10370.000235	0.04330
10370.900235	0.04796
10372.000235	0.05655
10373.000235	0.07281
10374.000235	0.10271
10375.000235	0.16597
10376.000235	0.26937
10377.000235	0.33523
10378.000235	0.32927
10379.000235	0.31281
10380.000235	0.30663
10381.000235	0.30838
10382.000235	0.30242
10382.900235	0.28564
10384.000235	0.26058
10384.900235	0.24009
10386.000235	0.22422
10387.000235	0.21248
10388.000235	0.20347
10389.000235	0.19704
10390.000235	0.19190
10390.900235	0.18827
10392.000235	0.18720
10393.000235	0.18627
10393.900235	0.18681
10395.000235	0.18652
10395.900235	0.18606
10397.000235	0.18621
10397.900235	0.18631
10398.900235	0.18576
10399.900235	0.18516
10401.000235	0.18395
10402.000235	0.18159
10403.000235	0.17774
10403.900235	0.17413
10405.000235	0.17009
10406.000235	0.16765
10407.000235	0.16535
10408.000235	0.16406
10408.900235	0.16409
10410.000235	0.16513
10410.900236	0.16671
10412.000236	0.16771
10413.000236	0.16946
10414.000236	0.17147
10415.000236	0.17329
10416.000236	0.17561
10416.900236	0.17854
10418.000236	0.18169
10419.000236	0.18495
10421.000236	0.18986
10421.800236	0.19235
10424.800236	0.19692
10426.200236	0.19810
10427.700236	0.19899
10429.200236	0.19896
10430.800236	0.19964
10432.300236	0.19913
10434.000236	0.19948
10435.500236	0.19897
10437.100236	0.19930
10438.700236	0.19893
10440.400236	0.19905
10442.100236	0.19828
10443.800236	0.19839
10445.600236	0.19677
10447.300236	0.19610
10449.000236	0.19538
10450.800236	0.19570
10452.600236	0.19412
10454.400236	0.19422
10456.200237	0.19331
10458.100237	0.19229
10459.900237	0.19183
10461.800237	0.19146
10463.700237	0.19094
10465.600237	0.18982
10467.500237	0.18973
10469.500237	0.18958
10471.500237	0.18892
10473.500237	0.18900
10475.500237	0.18799
10477.500237	0.18738
10479.600237	0.18648
10481.600237	0.18625
10483.700237	0.18585
10485.900237	0.18603
10488.000237	0.18560
10490.100237	0.18512
10492.300237	0.18482
10494.500237	0.18481
10496.700237	0.18445
10498.900237	0.18403
10501.100238	0.18499
10503.400238	0.18628
10505.700238	0.18624
10508.000238	0.18714
10510.300238	0.18789
10512.600238	0.18811
10515.000238	0.18890
10517.300238	0.18970
10519.800238	0.18940
10522.100238	0.18933
10524.600238	0.18927
10527.000238	0.18920
10529.500238	0.18879
10532.000238	0.18858
10534.500238	0.18807
10537.100238	0.18734
10539.600238	0.18644
10542.100238	0.18616
10544.700239	0.18532
10547.300239	0.18468
10549.900239	0.18365
10552.500239	0.18335
10555.200239	0.18314
10557.900239	0.18299
10560.600239	0.18263
10563.200239	0.18184
10566.000239	0.18116
10568.700239	0.18073
10571.600239	0.18042
10574.300239	0.18118
10577.100239	0.18091
10580.000239	0.18003
10582.800239	0.18043
10585.600239	0.18000
10588.500240	0.18032
10591.400240	0.18050
10594.300240	0.18030
10597.300240	0.18081
10600.300240	0.18044
10603.200240	0.17989
10606.200240	0.18003
10609.200240	0.17978
10612.300240	0.17999
10615.300240	0.17983
10618.400240	0.17988
10621.500240	0.17956
10624.600240	0.17914
10627.700240	0.17931
10630.900240	0.17867
10634.000241	0.17895
10637.200241	0.17875
10640.400241	0.17814
10643.700241	0.17769
10646.900241	0.17725
10650.100241	0.17639
10653.400241	0.17623
10656.700241	0.17544
10660.000241	0.17564
10663.400241	0.17515
10666.700241	0.17462
10670.100241	0.17450
10673.500241	0.17428
10677.000242	0.17408
10680.300242	0.17397
10683.800242	0.17353
10687.300242	0.17410
10690.700242	0.17368
10694.200242	0.17354
10697.700242	0.17348
10701.400242	0.17307
10704.800242	0.17344
10708.400242	0.17335
10712.100242	0.17300
10715.600242	0.17310
10719.300242	0.17287
10722.900243	0.17294
10726.600243	0.17273
10730.300243	0.17248
10734.000243	0.17191
10737.700243	0.17192
10741.500243	0.17166
10745.300243	0.17139
10749.100243	0.17102
10752.900243	0.17057
10756.700243	0.17029
10760.600243	0.17006
10764.400244	0.16978
10768.300244	0.16978
10772.200244	0.16929
10776.100244	0.16883
10780.000244	0.16788
10784.000244	0.16818
10788.000244	0.16833
10791.900244	0.16774
10796.000244	0.16767
10800.000244	0.16694
10804.000244	0.16710
10808.100244	0.16656
10812.200245	0.16661
10816.300245	0.16623
10820.500245	0.16633
10824.600245	0.16658
10828.700245	0.16613
10833.000245	0.16636
10837.100245	0.16572
10841.400245	0.16572
10845.600245	0.16497
10849.900245	0.16505
10854.100246	0.16485
10858.500246	0.16515
10862.800246	0.16433
10867.100246	0.16396
10871.400246	0.16341
10875.900246	0.16293
10880.200246	0.16201
10884.600246	0.16179
10889.100246	0.16175
10893.500246	0.16177
10898.000247	0.16110
10902.500247	0.16107
10906.900247	0.16066
10911.500247	0.16039
10916.000247	0.16017
10920.600247	0.16013
10925.300247	0.15973
10929.700247	0.15950
10934.400247	0.15934
10939.000247	0.15903
10943.700248	0.15851
10948.400248	0.15832
10953.000248	0.15753
10957.800248	0.15743
10962.500248	0.15716
10967.300248	0.15705
10972.000248	0.15684
10976.800248	0.15661
10981.600248	0.15618
10986.500249	0.15611
10991.300249	0.15578
10996.100249	0.15558
11001.000249	0.15584
11006.000249	0.15572
11010.800249	0.15559
11015.700249	0.15514
11020.700249	0.15525
11025.700249	0.15499
11030.800250	0.15479
11035.700250	0.15509
11040.700250	0.15436
11045.800250	0.15417
11050.900250	0.15441
11056.000250	0.15391
11061.100250	0.15404
11066.200250	0.15367
11071.400250	0.15389
11076.500251	0.15370
11081.700251	0.15365
11086.900251	0.15385
11092.100251	0.15375
11097.400251	0.15399
11102.600251	0.15405
11107.900251	0.15515
11113.200251	0.15596
11118.500252	0.15596
11123.800252	0.15540
11129.100252	0.15552
11134.600252	0.15552
11140.000252	0.15530
11145.400252	0.15549
11150.800252	0.15543
11156.300252	0.15533
11161.600252	0.15490
11167.200253	0.15510
11172.700253	0.15470
11178.300253	0.15482
11183.800253	0.15520
11189.300253	0.15512
11194.900253	0.15497
11200.500253	0.15507
11206.100253	0.15506
11211.700254	0.15478
11217.500254	0.15471
11223.200254	0.15461
11228.800254	0.15464
11234.500254	0.15423
11240.200254	0.15443
11246.000254	0.15395
11251.800255	0.15366
11257.500255	0.15315
11263.400255	0.15322
11269.200255	0.15306
11275.000255	0.15272
11280.900255	0.15263
11286.800255	0.15254
11292.700255	0.15266
11298.500256	0.15203
11304.600256	0.15218
11310.500256	0.15175
11316.400256	0.15159
11322.500256	0.15104
11328.500256	0.15087
