# XDI/1.0
# Column.1: energy(ev)
# Column.2: transmission(au)
# Element.symbol: Mo
# Element.edge: K
# Mono.name: Si 2 2 0
# Mono.d_spacing: 1.92
# Beamline.name: FAME
# Sample.name: Pellet of molybdenum dioxyde MoO2 mixed with BN
# Sample.temperature: 20.0 +/- 2.0 Â°C
# Sample.pressure: None
# Citation.doi:  https://doi.org/10.26302/SSHADE/EXPERIMENT_PA_20180702_001
# Citation.comments: Afanasiev, Pavel; Aguilar Tapia, Antonio (2018): Mo K edge XAS transmission of molybdenum dioxyde MoO2. SSHADE/FAME (OSUG Data Center). Dataset/Spectral Data. https://doi.org/10.26302/SSHADE/EXPERIMENT_PA_20180702_001Schmitt, Bernard; Bollard, Philippe; Albert, Damien; Garenne, Alexandre; Bonal, Lydie; and the SSHADE partner's consortium (2018). SSHADE: 'Solid Spectroscopy Hosting Architecture of Databases and Expertise'. OSUG Data Center. Service/Database infrastructure. https://doi.org/10.26302/SSHADE
# ////
#---------
# energy(ev)	transmission(au)
19802.300448	-1.91263
19809.400448	-1.91301
19814.600448	-1.91320
19819.600448	-1.91330
19824.600448	-1.91326
19829.700449	-1.91326
19834.700449	-1.91366
19839.600449	-1.91370
19844.600449	-1.91384
19850.000449	-1.91391
19854.800449	-1.91395
19859.800449	-1.91391
19864.700449	-1.91433
19869.800449	-1.91452
19874.800450	-1.91455
19879.700450	-1.91481
19884.700450	-1.91490
19889.900450	-1.91487
19895.000450	-1.91485
19899.900450	-1.91476
19904.800450	-1.91486
19909.800450	-1.91505
19914.900451	-1.91521
19919.800451	-1.91548
19924.800451	-1.91568
19929.800451	-1.91568
19935.100451	-1.91534
19940.000451	-1.91531
19944.800451	-1.91550
19949.700451	-1.91565
19954.900451	-1.91562
19959.800452	-1.91572
19964.900452	-1.91582
19969.800452	-1.91546
19975.000452	-1.91527
19980.100452	-1.91472
19981.300452	-1.91441
19982.200452	-1.91424
19983.200452	-1.91406
19984.200452	-1.91393
19985.100452	-1.91379
19986.100452	-1.91369
19987.100452	-1.91352
19988.100452	-1.91329
19989.100452	-1.91284
19990.100452	-1.91233
19991.100452	-1.91192
19992.100452	-1.91141
19993.100452	-1.91065
19994.100452	-1.90969
19995.200452	-1.90860
19996.100452	-1.90730
19997.100452	-1.90535
19998.200452	-1.90306
19999.100452	-1.90068
20000.100452	-1.89772
20001.100452	-1.89457
20002.100452	-1.89094
20003.100452	-1.88662
20004.100453	-1.88193
20005.100453	-1.87675
20006.100453	-1.87077
20007.100453	-1.86404
20008.100453	-1.85593
20009.100453	-1.84710
20010.100453	-1.83775
20011.100453	-1.82697
20012.100453	-1.81641
20013.100453	-1.80608
20014.100453	-1.79656
20015.100453	-1.78798
20016.100453	-1.77988
20017.200453	-1.77232
20018.200453	-1.76667
20019.200453	-1.76247
20020.200453	-1.75905
20021.100453	-1.75646
20022.100453	-1.75501
20023.100453	-1.75406
20024.100453	-1.75391
20025.200453	-1.75423
20026.100453	-1.75467
20027.100453	-1.75497
20028.100453	-1.75486
20029.100453	-1.75442
20030.100453	-1.75435
20031.100453	-1.75466
20032.100453	-1.75541
20033.100453	-1.75680
20034.100453	-1.75919
20035.100453	-1.76206
20036.100453	-1.76551
20037.100453	-1.76927
20038.200453	-1.77308
20039.200453	-1.77638
20040.100453	-1.77947
20041.100453	-1.78225
20042.100453	-1.78469
20043.100453	-1.78688
20044.100453	-1.78865
20045.100453	-1.78968
20046.200453	-1.79063
20047.100453	-1.79100
20048.100454	-1.79114
20049.200454	-1.79122
20050.100454	-1.79114
20051.100454	-1.79081
20052.100454	-1.79061
20053.100454	-1.79050
20054.100454	-1.79011
20055.200454	-1.78985
20056.100454	-1.79023
20057.100454	-1.79058
20058.200454	-1.79116
20059.200454	-1.79161
20060.200454	-1.79207
20061.200454	-1.79276
20062.200454	-1.79303
20063.200454	-1.79341
20064.100454	-1.79353
20065.100454	-1.79353
20066.100454	-1.79342
20067.100454	-1.79326
20068.100454	-1.79285
20069.100454	-1.79213
20070.100454	-1.79133
20071.100454	-1.79072
20072.200454	-1.78973
20073.100454	-1.78899
20074.100454	-1.78800
20075.100454	-1.78688
20076.100454	-1.78565
20077.100454	-1.78485
20078.100454	-1.78368
20079.100454	-1.78266
20080.200454	-1.78174
20081.800454	-1.78014
20085.300454	-1.77824
20087.300454	-1.77764
20089.100454	-1.77725
20091.000454	-1.77748
20092.800455	-1.77792
20094.600455	-1.77822
20096.600455	-1.77844
20098.400455	-1.77897
20100.400455	-1.77987
20102.500455	-1.78120
20104.500455	-1.78242
20106.400455	-1.78370
20108.300455	-1.78483
20110.400455	-1.78601
20112.400455	-1.78702
20114.500455	-1.78809
20116.600455	-1.78842
20118.600455	-1.78897
20120.700455	-1.78967
20122.900455	-1.79003
20125.300455	-1.79025
20127.300455	-1.79055
20129.500455	-1.79035
20131.700455	-1.79065
20134.000455	-1.79099
20136.200456	-1.79086
20138.500456	-1.79112
20140.700456	-1.79159
20143.000456	-1.79141
20145.500456	-1.79152
20147.900456	-1.79154
20150.100456	-1.79139
20152.500456	-1.79122
20154.900456	-1.79137
20157.300456	-1.79113
20159.800456	-1.79118
20162.200456	-1.79109
20164.700456	-1.79056
20167.300456	-1.79008
20169.800456	-1.78991
20172.300456	-1.78923
20174.900456	-1.78871
20177.500456	-1.78886
20180.100457	-1.78908
20182.600457	-1.78970
20185.300457	-1.79079
20188.000457	-1.79136
20190.800457	-1.79232
20193.400457	-1.79305
20196.000457	-1.79329
20198.700457	-1.79323
20201.500457	-1.79321
20204.200457	-1.79322
20207.000457	-1.79338
20209.800457	-1.79316
20212.800457	-1.79319
20215.500457	-1.79344
20218.300457	-1.79314
20221.300457	-1.79371
20224.200457	-1.79414
20227.000458	-1.79432
20230.000458	-1.79483
20233.100458	-1.79541
20236.100458	-1.79581
20238.900458	-1.79569
20241.900458	-1.79645
20244.900458	-1.79693
20248.000458	-1.79752
20251.000458	-1.79761
20254.200458	-1.79804
20257.400458	-1.79817
20260.400458	-1.79816
20263.600458	-1.79843
20266.700458	-1.79850
20269.900459	-1.79816
20273.000459	-1.79758
20276.400459	-1.79696
20279.700459	-1.79619
20282.800459	-1.79608
20286.100459	-1.79561
20289.300459	-1.79554
20292.600459	-1.79559
20295.900459	-1.79585
20299.400459	-1.79662
20302.800459	-1.79722
20306.100459	-1.79751
20309.600459	-1.79773
20312.900460	-1.79792
20316.400460	-1.79808
20319.900460	-1.79812
20323.500460	-1.79799
20326.900460	-1.79799
20330.300460	-1.79842
20333.800460	-1.79864
20337.400460	-1.79872
20341.000460	-1.79913
20344.700460	-1.79970
20348.200460	-1.79993
20351.900460	-1.80038
20355.600460	-1.80028
20359.200461	-1.80042
20362.900461	-1.80073
20366.800461	-1.80076
20370.400461	-1.80140
20374.000461	-1.80170
20377.700461	-1.80232
20381.500461	-1.80279
20385.400461	-1.80332
20389.300461	-1.80372
20393.100461	-1.80357
20397.000461	-1.80349
20400.900461	-1.80299
20404.700462	-1.80245
20408.800462	-1.80193
20412.700462	-1.80141
20416.500462	-1.80138
20420.500462	-1.80114
20424.500462	-1.80118
20428.400462	-1.80153
20432.600462	-1.80173
20436.700462	-1.80238
20440.700462	-1.80279
20444.800462	-1.80378
20448.800463	-1.80412
20453.000463	-1.80460
20457.300463	-1.80517
20461.300463	-1.80537
20465.400463	-1.80550
20469.600463	-1.80550
20473.800463	-1.80566
20478.200463	-1.80554
20482.400463	-1.80592
20486.700463	-1.80580
20491.000464	-1.80611
20495.200464	-1.80604
20499.800464	-1.80588
20504.000464	-1.80623
20508.300464	-1.80641
20512.600464	-1.80648
20517.000464	-1.80621
20521.600464	-1.80650
20526.000464	-1.80678
20530.400464	-1.80722
20535.000465	-1.80764
20539.400465	-1.80837
20544.100465	-1.80825
20548.600465	-1.80886
20553.000465	-1.80899
20557.500465	-1.80919
20562.100465	-1.80909
20566.900465	-1.80901
20571.400465	-1.80919
20576.100465	-1.80914
20580.800466	-1.80930
20585.500466	-1.80969
20590.500466	-1.81005
20594.900466	-1.81024
20599.700466	-1.81054
20604.300466	-1.81085
20609.100466	-1.81061
20614.100466	-1.81106
20618.800466	-1.81130
20623.800467	-1.81165
20628.600467	-1.81191
20633.400467	-1.81192
20638.600467	-1.81216
20643.200467	-1.81227
20648.100467	-1.81246
20653.000467	-1.81255
20658.200467	-1.81250
20663.100467	-1.81279
20668.200468	-1.81296
20673.100468	-1.81299
20678.200468	-1.81307
20683.500468	-1.81340
20688.400468	-1.81390
20693.300468	-1.81383
20698.400468	-1.81422
20703.800468	-1.81451
20708.900468	-1.81506
20714.200469	-1.81534
20719.200469	-1.81562
20724.500469	-1.81585
20729.900469	-1.81607
20735.000469	-1.81622
20740.100469	-1.81621
20745.400469	-1.81644
20751.000469	-1.81645
20756.200470	-1.81652
20761.600470	-1.81665
20766.900470	-1.81694
20772.500470	-1.81721
20777.800470	-1.81742
20783.000470	-1.81763
20788.500470	-1.81782
20794.000470	-1.81814
20799.600471	-1.81841
20805.100471	-1.81856
20810.600471	-1.81886
20816.100471	-1.81906
20821.800471	-1.81932
20827.200471	-1.81951
20832.700471	-1.81953
20838.300471	-1.81975
20844.200472	-1.81971
20849.700472	-1.81989
20855.400472	-1.82004
20861.100472	-1.82043
20867.000472	-1.82062
20872.500472	-1.82085
20878.100472	-1.82102
20883.900472	-1.82129
20889.900473	-1.82164
20895.600473	-1.82193
