# XDI/1.0
# Column.1: energy(ev)
# Column.2: fluorescence_emission(au)
# Element.symbol: Pt
# Element.edge: L3
# Mono.name: Si 2 2 0
# Mono.d_spacing: 1.92
# Beamline.name: FAME
# Sample.name: Pellet of C6H12N2O4Pt mixed with BN
# Sample.temperature: 25.0 +/- -268.1 °C
# Sample.pressure: 1.0 bar
# Citation.doi:  https://doi.org/10.26302/SSHADE/EXPERIMENT_GP_20181107_001
# Citation.comments: Laskar, Clément; Pokrovski, Gleb; Bazarkina, Elena; Hazemann, Jean-Louis (2018): Pt L3 edge XAS HERFD and XAS transmission of platinum hydrogensulfide complexes in geological fluids (impact of sulfur on the transfer of noble metals by hydrothermal fluids). SSHADE/FAME (OSUG Data Center). Dataset/Spectral Data. https://doi.org/10.26302/SSHADE/EXPERIMENT_GP_20181107_001Schmitt, Bernard; Bollard, Philippe; Albert, Damien; Garenne, Alexandre; Bonal, Lydie; and the SSHADE partner's consortium (2018). SSHADE: 'Solid Spectroscopy Hosting Architecture of Databases and Expertise'. OSUG Data Center. Service/Database infrastructure. https://doi.org/10.26302/SSHADE
# ////
#---------
# energy(ev)	fluorescence_emission(au)
11451.500000	0.57448
11457.700000	0.58204
11462.900000	0.58838
11467.900000	0.59448
11473.000000	0.60071
11478.100000	0.60693
11483.100000	0.61303
11488.200000	0.61925
11493.100000	0.62523
11498.200000	0.63145
11503.200000	0.63755
11508.200000	0.64365
11513.300000	0.64987
11518.300000	0.65597
11523.200000	0.66195
11528.300000	0.65939
11533.300000	0.61845
11538.300000	0.64095
11543.300000	0.75104
11548.200000	0.82286
11553.400000	0.85178
11553.700000	0.93078
11553.800000	0.97371
11554.200000	0.95149
11554.500000	1.01987
11554.800000	1.12091
11555.100000	1.04538
11555.400000	1.07095
11555.700000	1.15319
11556.000000	1.17563
11556.300000	1.17499
11556.600000	1.26461
11556.900000	1.34316
11557.200000	1.47670
11557.500000	1.67084
11557.800000	1.73339
11558.100000	1.74154
11558.400000	1.91314
11558.700000	2.12767
11559.000000	2.22613
11559.300000	2.49430
11559.600000	2.83667
11559.900000	3.29546
11560.200000	3.61985
11560.500000	4.16110
11560.800000	4.94603
11561.100000	5.70122
11561.400000	6.80237
11561.700000	8.26692
11562.000000	10.24564
11562.300000	12.49879
11562.600000	15.72776
11562.900000	20.46154
11563.200000	26.51250
11563.500000	34.23857
11563.800000	45.56634
11564.100000	61.68167
11564.400000	83.33157
11564.700000	112.14168
11565.000000	149.67573
11565.300000	194.36514
11565.600000	245.85092
11565.900000	304.70322
11566.200000	373.09767
11566.500000	450.37182
11566.800000	536.98947
11567.100000	627.59221
11567.400000	711.91980
11567.700000	769.84572
11568.000000	773.99294
11568.300000	712.12093
11568.600000	603.76196
11568.900000	478.22905
11569.200000	367.11649
11569.500000	269.78813
11569.800000	198.80504
11570.100000	150.42514
11570.400000	116.76490
11570.700000	93.94320
11571.000000	78.08160
11571.300000	67.59490
11571.600000	61.97438
11571.900000	59.09989
11572.200000	58.70228
11572.500000	61.43843
11572.800000	67.94801
11573.100000	74.45759
11574.000000	93.16348
11575.000000	110.59703
11576.100000	133.66899
11577.100000	145.98647
11578.100000	151.83728
11579.100000	157.60939
11580.100000	160.02310
11581.100000	155.68004
11582.100000	148.40853
11583.100000	141.14789
11584.100000	135.11400
11585.100000	130.38482
11586.100000	128.38011
11587.100000	127.29785
11588.100000	128.44248
11589.100000	128.58009
11590.000000	129.32408
11591.100000	132.25394
11592.100000	134.88353
11593.100000	138.50077
11594.100000	142.27949
11595.100000	145.35879
11596.100000	150.11510
11597.100000	153.68746
11598.100000	156.12413
11599.100000	158.52160
11600.100000	159.43829
11601.100000	160.30342
11602.100000	161.28372
11603.000000	161.60725
11604.100000	159.68475
11605.100000	158.76710
11606.100000	159.58548
11607.100000	160.29506
11608.100000	161.00739
11609.100000	162.92439
11610.100000	165.03145
11611.100000	167.42724
11612.100000	170.15577
11614.000000	174.91183
11616.100000	179.31470
11618.000000	182.63482
11620.200000	181.95647
11622.200000	176.97414
11624.100000	170.81336
11626.100000	164.39025
11628.100000	158.79982
11630.100000	153.55340
11632.000000	151.15364
11634.100000	149.15122
11636.200000	148.19447
11638.100000	148.38120
11640.100000	148.26503
11642.100000	147.58388
11644.100000	149.01657
11646.100000	150.67604
11648.200000	150.76152
11650.100000	152.41581
11652.100000	153.41656
11655.100000	154.75180
11655.800000	155.16519
11659.300000	157.57715
11661.300000	159.74399
11663.200000	161.80248
11665.100000	163.86098
11667.000000	165.91947
11669.000000	168.08631
11670.900000	170.14480
11672.900000	172.31164
11674.900000	173.90635
11676.900000	174.16610
11679.100000	174.45182
11681.000000	174.69859
11683.100000	173.95363
11685.200000	170.66443
11687.300000	167.37523
11689.500000	163.92940
11691.700000	161.12324
11693.900000	159.43650
11696.000000	157.82643
11698.200000	156.13969
11700.500000	154.87327
11702.700000	155.00887
11705.000000	155.15062
11707.300000	155.29237
11709.600000	155.42427
11711.900000	155.53361
11714.300000	155.64772
11716.600000	155.75707
11719.000000	155.93814
11721.500000	156.29617
11723.800000	156.62556
11726.300000	156.98359
11728.800000	157.66564
11731.100000	159.05969
11733.700000	160.63557
11736.300000	162.21145
11738.700000	163.60896
11741.300000	164.93725
11743.900000	166.26553
11746.400000	167.54272
11749.100000	168.54293
11751.700000	168.46291
11754.400000	168.37981
11757.000000	168.29979
11759.600000	168.01125
11762.400000	166.95197
11765.200000	165.89269
11767.900000	164.87124
11770.600000	163.93260
11773.400000	163.25977
11776.200000	162.58693
11779.100000	161.89007
11781.800000	161.30505
11784.700000	160.91646
11787.600000	160.52788
11790.500000	160.13930
11793.400000	159.92211
11796.300000	160.24357
11799.200000	160.56503
11802.200000	160.89758
11805.200000	161.19919
11808.300000	161.42296
11811.200000	161.63229
11814.300000	161.85606
11817.300000	162.10230
11820.400000	162.45756
11823.600000	162.82428
11826.700000	163.17954
11829.800000	163.68856
11832.900000	164.72480
11836.200000	165.82790
11839.300000	166.86414
11842.500000	167.70270
11845.700000	167.71586
11849.000000	167.72943
11852.400000	167.74342
11855.600000	167.67001
11858.900000	167.27548
11862.200000	166.88095
11865.600000	166.47446
11868.900000	166.03893
11872.300000	165.45817
11875.600000	164.89449
11879.100000	164.29665
11882.600000	163.80609
11886.000000	163.68130
11889.500000	163.55284
11893.000000	163.42437
11896.600000	163.21744
11900.000000	162.77476
11903.600000	162.30603
11907.200000	161.83731
11910.800000	161.55983
11914.400000	161.95173
11918.000000	162.34363
11921.600000	162.73553
11925.400000	163.16420
11929.000000	163.62358
11932.700000	164.09572
11936.400000	164.56786
11940.200000	165.09871
11943.900000	165.81372
11947.700000	166.54805
11951.500000	167.28238
11955.400000	167.81830
11959.200000	167.51835
11963.000000	167.21840
11966.900000	166.91056
11970.900000	166.61598
11974.700000	166.41649
11978.600000	166.21175
11982.600000	166.00176
11986.600000	165.78697
11990.500000	165.55884
11994.500000	165.32487
11998.600000	165.08504
12002.600000	164.85856
12006.700000	164.66263
12010.700000	164.47148
12014.900000	164.27077
12019.000000	164.15218
12023.100000	164.40925
12027.200000	164.66632
12031.500000	164.93593
12035.600000	165.14464
12039.800000	165.11783
12044.100000	165.09039
12048.300000	165.06358
12052.600000	165.07457
12056.800000	165.27840
12061.200000	165.49193
12065.500000	165.70060
12069.800000	165.90928
12074.300000	166.12766
12078.600000	166.33634
12083.000000	166.54987
12087.400000	166.76340
12091.900000	166.98178
12096.300000	167.19531
12100.800000	167.41369
12105.400000	167.63693
12109.800000	167.85046
12114.300000	168.06884
12118.900000	168.29207
12123.500000	168.51531
12128.100000	168.73854
12132.600000	168.95693
12137.300000	169.18502
12141.900000	169.40825
12146.500000	169.63149
12151.400000	169.86928
12156.000000	170.09252
12160.700000	170.32060
12165.500000	170.55355
12170.200000	170.78163
12175.000000	171.01458
12179.800000	171.24752
12184.700000	171.48531
12189.500000	171.71825
12194.300000	171.95119
12199.200000	172.18899
12204.100000	172.42678
12209.000000	172.66458
12214.000000	172.90722
12218.800000	173.14016
12223.800000	173.38281
12228.900000	173.63031
12233.800000	173.86811
12238.800000	174.11075
12244.000000	174.36311
12249.000000	174.60575
12254.000000	174.84840
12259.200000	175.10075
12264.300000	175.34825
12269.400000	175.59575
12274.600000	175.84811
12279.700000	176.09561
12284.900000	176.34796
12290.200000	176.60517
12295.400000	176.85752
12300.600000	177.10987
12306.000000	177.37193
