# XDI/1.0
# Column.1: energy(ev)
# Column.2: fluorescence_emission(au)
# Element.symbol: Pt
# Element.edge: L3
# Mono.name: Si 2 2 0
# Mono.d_spacing: 1.92
# Beamline.name: FAME
# Sample.name: K2PtCl4 aq solution 0.0148m + 0.233m HCl + 0.004m KBr
# Sample.temperature: 30.0 +/- 5.0 °C
# Sample.pressure: 700.0 bar
# Citation.doi:  https://doi.org/10.26302/SSHADE/EXPERIMENT_GP_20180208_001
# Citation.comments: Pokrovski, Gleb; Hazemann, Jean-Louis (2018): Pt L3 edge XAS fluorescence and XAS transmission of Aqueous platinum chloride soutions at 600-700 nars and 30°C. SSHADE/FAME (OSUG Data Center). Dataset/Spectral Data. https://doi.org/10.26302/SSHADE/EXPERIMENT_GP_20180208_001Schmitt, Bernard; Bollard, Philippe; Albert, Damien; Garenne, Alexandre; Bonal, Lydie; and the SSHADE partner's consortium (2018). SSHADE: 'Solid Spectroscopy Hosting Architecture of Databases and Expertise'. OSUG Data Center. Service/Database infrastructure. https://doi.org/10.26302/SSHADE
# ////
#---------
# energy(ev)	fluorescence_emission(au)
11446.900000	0.00959
11450.200000	0.00966
11452.400000	0.00959
11454.400000	0.00969
11456.400000	0.00982
11458.500000	0.00977
11460.500000	0.00988
11462.400000	0.00983
11464.500000	0.00987
11466.500000	0.00998
11468.400000	0.01014
11470.500000	0.01003
11472.500000	0.01009
11474.500000	0.01019
11476.400000	0.01035
11478.500000	0.01035
11480.400000	0.01050
11482.400000	0.01046
11484.500000	0.01062
11486.500000	0.01066
11488.400000	0.01075
11490.400000	0.01083
11492.500000	0.01100
11494.500000	0.01106
11496.500000	0.01141
11498.500000	0.01140
11500.500000	0.01160
11502.500000	0.01177
11504.500000	0.01171
11506.500000	0.01191
11508.500000	0.01197
11510.500000	0.01230
11512.600000	0.01241
11514.500000	0.01281
11516.500000	0.01319
11518.500000	0.01316
11520.600000	0.01364
11522.600000	0.01394
11524.600000	0.01430
11526.700000	0.01470
11528.600000	0.01494
11530.600000	0.01562
11532.600000	0.01634
11534.600000	0.01675
11536.600000	0.01762
11538.600000	0.01831
11540.700000	0.01976
11542.600000	0.02091
11544.500000	0.02238
11546.600000	0.02468
11548.600000	0.02749
11549.200000	0.02830
11549.700000	0.02892
11550.100000	0.02976
11550.600000	0.03082
11551.100000	0.03214
11551.600000	0.03292
11552.100000	0.03408
11552.600000	0.03589
11553.100000	0.03735
11553.600000	0.03896
11554.100000	0.04071
11554.600000	0.04271
11555.100000	0.04517
11555.600000	0.04762
11556.100000	0.05021
11556.600000	0.05425
11557.100000	0.05761
11557.600000	0.06137
11558.100000	0.06709
11558.600000	0.07367
11559.100000	0.08056
11559.600000	0.08852
11560.100000	0.09783
11560.600000	0.10893
11561.100000	0.12186
11561.600000	0.13801
11562.100000	0.15880
11562.600000	0.18365
11563.100000	0.21286
11563.600000	0.24383
11564.100000	0.28035
11564.600000	0.31445
11565.100000	0.34295
11565.600000	0.36384
11566.100000	0.37302
11566.600000	0.36920
11567.100000	0.36087
11567.600000	0.34511
11568.100000	0.32900
11568.600000	0.30914
11569.100000	0.29294
11569.600000	0.27932
11570.100000	0.26813
11570.600000	0.25870
11571.100000	0.25109
11571.600000	0.24395
11572.100000	0.24145
11572.600000	0.24111
11573.100000	0.24063
11573.600000	0.24106
11574.100000	0.24541
11574.600000	0.24532
11575.100000	0.25106
11575.600000	0.25119
11576.100000	0.25194
11576.600000	0.25394
11577.100000	0.25438
11577.600000	0.25345
11578.100000	0.25334
11578.600000	0.25236
11579.100000	0.25294
11579.600000	0.25064
11580.100000	0.24786
11580.600000	0.24915
11581.100000	0.24683
11581.600000	0.24554
11582.100000	0.24421
11582.600000	0.24511
11583.100000	0.24483
11583.600000	0.24045
11584.100000	0.24232
11584.600000	0.24466
11585.500000	0.24107
11587.300000	0.24128
11588.500000	0.24495
11589.400000	0.24551
11590.400000	0.24872
11591.400000	0.24966
11592.500000	0.25300
11593.500000	0.25777
11594.700000	0.25744
11595.800000	0.26089
11596.900000	0.26066
11598.000000	0.26238
11599.200000	0.26245
11600.400000	0.26564
11601.600000	0.26412
11602.800000	0.26558
11604.000000	0.26590
11605.300000	0.26683
11606.600000	0.26844
11607.900000	0.26992
11609.300000	0.27081
11610.500000	0.27292
11611.900000	0.27604
11613.300000	0.27857
11614.600000	0.27949
11616.100000	0.27966
11617.500000	0.27993
11618.900000	0.28105
11620.400000	0.27877
11621.900000	0.27760
11623.400000	0.27403
11625.000000	0.27255
11626.400000	0.26842
11628.000000	0.26587
11629.600000	0.26254
11631.300000	0.26105
11632.800000	0.25829
11634.500000	0.25580
11636.100000	0.25333
11637.900000	0.25300
11639.500000	0.25211
11641.200000	0.25282
11642.900000	0.25485
11644.800000	0.25223
11646.400000	0.25481
11648.300000	0.25510
11650.000000	0.25508
11652.000000	0.25632
11653.700000	0.25800
11655.600000	0.25806
11657.400000	0.26034
11659.400000	0.26168
11661.300000	0.26237
11663.200000	0.26341
11665.200000	0.26596
11667.200000	0.26647
11669.100000	0.26752
11671.200000	0.27075
11673.200000	0.27408
11675.300000	0.27723
11677.300000	0.27517
11679.500000	0.27481
11681.600000	0.27585
11683.700000	0.27412
11685.800000	0.27162
11688.000000	0.26976
11690.100000	0.26713
11692.400000	0.26677
11694.700000	0.26344
11696.900000	0.26144
11699.000000	0.26109
11701.400000	0.26116
11703.600000	0.25864
11706.000000	0.26120
11708.400000	0.25814
11710.700000	0.26062
11713.000000	0.25790
11715.400000	0.26135
11717.800000	0.26066
11720.300000	0.26036
11722.800000	0.26181
11725.200000	0.26207
11727.600000	0.26216
11730.200000	0.26335
11732.700000	0.26528
11735.300000	0.26525
11737.900000	0.26624
11740.500000	0.26870
11742.800000	0.26974
11745.600000	0.26898
11748.300000	0.27245
11751.000000	0.27227
11753.600000	0.27197
11756.200000	0.27241
11759.000000	0.27366
11761.700000	0.27181
11764.500000	0.26996
11767.300000	0.27084
11770.000000	0.26981
11772.800000	0.26990
11775.600000	0.26554
11778.500000	0.26691
11781.400000	0.26622
11784.200000	0.26610
11787.100000	0.26448
11790.000000	0.26519
11793.000000	0.26427
11796.000000	0.26327
11798.900000	0.26426
11801.900000	0.26287
11804.900000	0.26385
11807.900000	0.26132
11811.100000	0.26439
11814.000000	0.26439
11817.200000	0.26439
11820.300000	0.26522
11823.500000	0.26620
11826.600000	0.26781
11829.700000	0.26870
11833.000000	0.26923
11836.100000	0.26910
11839.400000	0.27111
11842.600000	0.26972
11845.900000	0.27041
11849.200000	0.26996
11852.500000	0.27042
11855.700000	0.27108
11859.000000	0.27010
11862.500000	0.26971
11865.800000	0.26983
11869.300000	0.26863
11872.600000	0.26976
11876.100000	0.26798
11879.500000	0.26606
11883.000000	0.26838
11886.400000	0.26598
11890.000000	0.26762
11893.500000	0.26515
11897.100000	0.26489
11900.600000	0.26358
11904.200000	0.26541
11907.800000	0.26544
11911.400000	0.26507
11915.000000	0.26477
11918.700000	0.26580
11922.400000	0.26513
11926.100000	0.26438
11929.700000	0.26521
11933.500000	0.26640
11937.300000	0.26502
11941.100000	0.26726
11944.800000	0.26793
11948.600000	0.26670
11952.500000	0.26758
11956.400000	0.26793
11960.100000	0.26799
11964.000000	0.26845
11967.900000	0.26699
11971.900000	0.26711
11975.700000	0.26787
11979.800000	0.26666
11983.700000	0.26700
11987.800000	0.26650
11991.700000	0.26724
11995.800000	0.26526
11999.900000	0.26700
12003.900000	0.26511
12007.900000	0.26603
12012.200000	0.26433
12016.300000	0.26519
12020.300000	0.26496
12024.600000	0.26403
12028.700000	0.26459
12033.000000	0.26438
12037.100000	0.26503
12041.400000	0.26569
12045.700000	0.26490
12049.900000	0.26540
12054.200000	0.26509
12058.600000	0.26609
12062.900000	0.26435
12067.100000	0.26593
12071.700000	0.26542
12076.100000	0.26688
12080.400000	0.26587
12084.800000	0.26674
12089.300000	0.26672
12093.800000	0.26550
12098.200000	0.26671
12102.800000	0.26651
12107.300000	0.26430
12111.700000	0.26682
12116.400000	0.26763
12120.900000	0.26589
12125.600000	0.26543
12130.200000	0.26408
12134.800000	0.26439
12139.500000	0.26516
12144.100000	0.26442
12148.900000	0.26570
12153.600000	0.26416
12158.200000	0.26395
12163.100000	0.26227
12167.800000	0.26412
12172.500000	0.26344
12177.400000	0.26390
12182.200000	0.26296
12187.100000	0.26226
12192.000000	0.26333
12196.800000	0.26399
12201.700000	0.26399
12206.600000	0.26453
12211.600000	0.26395
12216.500000	0.26340
12221.500000	0.26345
12226.600000	0.26410
12231.600000	0.26395
12236.500000	0.26274
12241.700000	0.26366
12246.700000	0.26334
12251.700000	0.26307
12257.000000	0.26344
12262.100000	0.26366
12267.100000	0.26427
12272.400000	0.26277
12277.500000	0.26330
12282.600000	0.26240
12288.000000	0.26068
12293.200000	0.26253
12298.400000	0.26266
12303.800000	0.26332
