# XDI/1.0
# Column.1: energy(ev)
# Column.2: fluorescence_emission(au)
# Element.symbol: Pt
# Element.edge: L3
# Mono.name: Si 2 2 0
# Mono.d_spacing: 1.92
# Beamline.name: FAME
# Sample.name: Pellet of (NH4)2Pt(S5)3 mixed with BN
# Sample.temperature: 25.0 +/- -268.1 °C
# Sample.pressure: 1.0 bar
# Citation.doi:  https://doi.org/10.26302/SSHADE/EXPERIMENT_GP_20181107_001
# Citation.comments: Laskar, Clément; Pokrovski, Gleb; Bazarkina, Elena; Hazemann, Jean-Louis (2018): Pt L3 edge XAS HERFD and XAS transmission of platinum hydrogensulfide complexes in geological fluids (impact of sulfur on the transfer of noble metals by hydrothermal fluids). SSHADE/FAME (OSUG Data Center). Dataset/Spectral Data. https://doi.org/10.26302/SSHADE/EXPERIMENT_GP_20181107_001Schmitt, Bernard; Bollard, Philippe; Albert, Damien; Garenne, Alexandre; Bonal, Lydie; and the SSHADE partner's consortium (2018). SSHADE: 'Solid Spectroscopy Hosting Architecture of Databases and Expertise'. OSUG Data Center. Service/Database infrastructure. https://doi.org/10.26302/SSHADE
# ////
#---------
# energy(ev)	fluorescence_emission(au)
11451.500000	4.65849
11457.700000	4.76454
11462.900000	4.80293
11467.900000	4.86898
11473.000000	4.69664
11478.100000	4.81821
11483.100000	4.92241
11488.200000	4.79540
11493.100000	4.81002
11498.200000	4.82797
11503.200000	4.74975
11508.200000	4.87570
11513.300000	4.86937
11518.300000	4.89731
11523.200000	4.77810
11528.300000	4.90736
11533.300000	4.84724
11538.300000	5.26566
11543.300000	5.43888
11548.200000	6.37917
11553.400000	9.02231
11553.700000	9.12689
11553.800000	9.24422
11554.200000	9.73747
11554.500000	10.15001
11554.800000	10.73653
11555.100000	11.25787
11555.400000	11.87913
11555.700000	12.44657
11556.000000	12.90786
11556.300000	14.05027
11556.600000	14.73756
11556.900000	15.40419
11557.200000	17.00261
11557.500000	18.09556
11557.800000	20.01982
11558.100000	21.74007
11558.400000	23.96703
11558.700000	26.38368
11559.000000	29.21965
11559.300000	32.56137
11559.600000	36.07314
11559.900000	39.82167
11560.200000	45.16895
11560.500000	52.32847
11560.800000	60.97143
11561.100000	70.94339
11561.400000	83.93285
11561.700000	99.72006
11562.000000	118.03257
11562.300000	141.60891
11562.600000	175.22345
11562.900000	218.10995
11563.200000	265.72681
11563.500000	339.68239
11563.800000	436.27291
11564.100000	569.00004
11564.400000	753.38574
11564.700000	1015.33570
11565.000000	1377.45680
11565.300000	1883.74430
11565.600000	2577.21280
11565.900000	3432.59760
11566.200000	4577.57780
11566.500000	5847.05740
11566.800000	7209.64550
11567.100000	8537.89660
11567.400000	9670.76970
11567.700000	10265.23800
11568.000000	10270.77100
11568.300000	9603.90100
11568.600000	8565.29810
11568.900000	7209.49830
11569.200000	6020.54130
11569.500000	5161.77440
11569.800000	4509.10680
11570.100000	3996.29480
11570.400000	3625.75580
11570.700000	3324.10050
11571.000000	3087.94850
11571.300000	2880.94530
11571.600000	2724.67570
11571.900000	2616.28260
11572.200000	2562.73490
11572.500000	2550.36400
11572.800000	2577.94270
11573.100000	2637.12140
11574.000000	2899.78400
11575.000000	3194.36900
11576.100000	3371.31080
11577.100000	3327.22710
11578.100000	3139.40760
11579.100000	2915.56230
11580.100000	2736.65740
11581.100000	2646.10610
11582.100000	2606.85670
11583.100000	2603.01630
11584.100000	2594.32850
11585.100000	2586.31390
11586.100000	2575.66530
11587.100000	2561.48560
11588.100000	2562.97810
11589.100000	2563.94410
11590.000000	2586.09030
11591.100000	2605.99700
11592.100000	2639.13190
11593.100000	2679.19070
11594.100000	2716.33270
11595.100000	2752.51860
11596.100000	2787.01170
11597.100000	2826.25450
11598.100000	2853.66320
11599.100000	2884.96070
11600.100000	2903.82960
11601.100000	2919.48830
11602.100000	2942.03460
11603.000000	2959.78190
11604.100000	2975.26250
11605.100000	2998.60760
11606.100000	3023.47980
11607.100000	3049.11610
11608.100000	3079.52880
11609.100000	3114.02780
11610.100000	3143.69920
11611.100000	3165.23280
11612.100000	3201.13420
11614.000000	3232.68160
11616.100000	3231.34770
11618.000000	3199.43400
11620.200000	3122.43190
11622.200000	3038.29120
11624.100000	2956.72680
11626.100000	2883.03380
11628.100000	2833.10860
11630.100000	2793.03590
11632.000000	2771.34160
11634.100000	2749.26310
11636.200000	2734.01840
11638.100000	2722.96070
11640.100000	2723.19050
11642.100000	2719.11580
11644.100000	2719.56110
11646.100000	2721.25110
11648.200000	2722.23290
11650.100000	2727.11560
11652.100000	2737.26280
11655.100000	2760.29760
11655.800000	2770.20480
11659.300000	2827.43620
11661.300000	2865.55730
11663.200000	2902.08430
11665.100000	2946.33050
11667.000000	2978.48750
11669.000000	3018.98740
11670.900000	3045.36140
11672.900000	3059.71590
11674.900000	3052.78240
11676.900000	3041.28770
11679.100000	3010.18110
11681.000000	2977.00010
11683.100000	2936.18470
11685.200000	2893.81720
11687.300000	2861.24160
11689.500000	2824.11090
11691.700000	2799.35660
11693.900000	2781.97100
11696.000000	2772.27090
11698.200000	2758.27630
11700.500000	2756.86600
11702.700000	2754.34320
11705.000000	2759.36580
11707.300000	2764.45300
11709.600000	2765.43910
11711.900000	2772.67970
11714.300000	2776.14450
11716.600000	2784.40410
11719.000000	2786.85080
11721.500000	2790.93240
11723.800000	2797.59550
11726.300000	2814.16170
11728.800000	2825.12520
11731.100000	2840.11510
11733.700000	2855.06690
11736.300000	2869.64690
11738.700000	2880.97840
11741.300000	2894.44220
11743.900000	2903.53660
11746.400000	2906.77260
11749.100000	2908.52030
11751.700000	2899.56540
11754.400000	2892.57980
11757.000000	2886.73350
11759.600000	2878.08110
11762.400000	2865.38150
11765.200000	2860.56020
11767.900000	2845.19670
11770.600000	2834.08810
11773.400000	2824.72840
11776.200000	2813.45980
11779.100000	2797.56400
11781.800000	2792.94180
11784.700000	2783.87840
11787.600000	2778.30210
11790.500000	2774.08620
11793.400000	2775.43620
11796.300000	2772.70920
11799.200000	2771.37860
11802.200000	2773.94720
11805.200000	2776.22770
11808.300000	2783.06120
11811.200000	2795.24770
11814.300000	2799.58810
11817.300000	2806.77000
11820.400000	2816.80440
11823.600000	2824.31570
11826.700000	2830.24760
11829.800000	2838.10480
11832.900000	2837.51650
11836.200000	2835.14010
11839.300000	2834.43910
11842.500000	2831.22690
11845.700000	2827.07560
11849.000000	2821.52390
11852.400000	2817.03890
11855.600000	2805.60370
11858.900000	2809.99110
11862.200000	2800.78050
11865.600000	2793.44000
11868.900000	2788.33510
11872.300000	2779.14040
11875.600000	2778.54560
11879.100000	2772.22950
11882.600000	2767.90300
11886.000000	2769.82240
11889.500000	2765.52450
11893.000000	2760.93200
11896.600000	2763.16840
11900.000000	2759.87530
11903.600000	2763.90020
11907.200000	2758.17090
11910.800000	2765.09830
11914.400000	2762.76560
11918.000000	2771.34720
11921.600000	2768.21300
11925.400000	2774.34870
11929.000000	2769.85140
11932.700000	2776.47390
11936.400000	2777.69120
11940.200000	2783.33000
11943.900000	2777.59610
11947.700000	2777.15480
11951.500000	2776.57150
11955.400000	2777.92900
11959.200000	2774.13840
11963.000000	2771.47320
11966.900000	2762.94540
11970.900000	2755.39380
11974.700000	2754.07020
11978.600000	2753.95870
11982.600000	2746.78020
11986.600000	2741.14550
11990.500000	2736.16310
11994.500000	2737.14410
11998.600000	2730.31340
12002.600000	2729.54750
12006.700000	2724.59050
12010.700000	2726.22660
12014.900000	2723.70200
12019.000000	2723.50360
12023.100000	2724.19670
12027.200000	2722.40820
12031.500000	2721.24790
12035.600000	2721.98720
12039.800000	2715.68630
12044.100000	2718.36100
12048.300000	2719.38610
12052.600000	2717.28090
12056.800000	2715.18090
12061.200000	2717.72510
12065.500000	2716.42130
12069.800000	2709.52560
12074.300000	2710.62870
12078.600000	2706.54510
12083.000000	2708.68780
12087.400000	2705.32640
12091.900000	2704.84040
12096.300000	2699.33100
12100.800000	2697.64310
12105.400000	2695.23610
12109.800000	2688.10260
12114.300000	2690.02040
12118.900000	2685.08120
12123.500000	2681.19930
12128.100000	2678.39090
12132.600000	2673.39850
12137.300000	2673.57880
12141.900000	2669.61150
12146.500000	2667.54870
12151.400000	2667.18560
12156.000000	2666.24680
12160.700000	2664.73590
12165.500000	2660.22170
12170.200000	2657.64960
12175.000000	2657.36760
12179.800000	2655.58920
12184.700000	2652.45080
12189.500000	2656.25730
12194.300000	2650.38370
12199.200000	2654.05180
12204.100000	2643.63430
12209.000000	2646.11910
12214.000000	2644.00160
12218.800000	2638.02570
12223.800000	2639.29310
12228.900000	2634.02750
12233.800000	2632.99260
12238.800000	2626.93340
12244.000000	2624.42530
12249.000000	2619.12190
12254.000000	2620.65650
12259.200000	2618.69280
12264.300000	2614.89410
12269.400000	2610.97400
12274.600000	2607.16310
12279.700000	2605.51900
12284.900000	2601.41300
12290.200000	2598.26560
12295.400000	2594.21330
12300.600000	2589.73110
12306.000000	2592.09320
