# XDI/1.0
# Column.1: energy(ev)
# Column.2: transmission(au)
# Element.symbol: Pt
# Element.edge: L3
# Mono.name: Si 2 2 0
# Mono.d_spacing: 1.92
# Beamline.name: FAME
# Sample.name: Pellet of K2PtCl4 mixed with BN
# Sample.temperature: 25.0 +/- 5.0 °C
# Sample.pressure: 1.0 bar
# Citation.doi:  https://doi.org/10.26302/SSHADE/EXPERIMENT_GP_20180208_001
# Citation.comments: Pokrovski, Gleb; Hazemann, Jean-Louis (2018): Pt L3 edge XAS fluorescence and XAS transmission of Aqueous platinum chloride soutions at 600-700 nars and 30°C. SSHADE/FAME (OSUG Data Center). Dataset/Spectral Data. https://doi.org/10.26302/SSHADE/EXPERIMENT_GP_20180208_001Schmitt, Bernard; Bollard, Philippe; Albert, Damien; Garenne, Alexandre; Bonal, Lydie; and the SSHADE partner's consortium (2018). SSHADE: 'Solid Spectroscopy Hosting Architecture of Databases and Expertise'. OSUG Data Center. Service/Database infrastructure. https://doi.org/10.26302/SSHADE
# ////
#---------
# energy(ev)	transmission(au)
11446.900000	1.27793
11450.200000	1.28111
11452.400000	1.28015
11454.400000	1.27483
11456.400000	1.27313
11458.500000	1.27486
11460.500000	1.27559
11462.400000	1.27659
11464.500000	1.27942
11466.500000	1.27575
11468.400000	1.27436
11470.500000	1.27388
11472.500000	1.27426
11474.500000	1.27108
11476.400000	1.26979
11478.500000	1.27239
11480.400000	1.27194
11482.400000	1.27336
11484.500000	1.27182
11486.500000	1.27313
11488.400000	1.27140
11490.400000	1.27252
11492.500000	1.27066
11494.500000	1.26744
11496.500000	1.26876
11498.500000	1.26763
11500.500000	1.26501
11502.500000	1.26889
11504.500000	1.26908
11506.500000	1.26638
11508.500000	1.26716
11510.500000	1.27020
11512.600000	1.27025
11514.500000	1.26781
11516.500000	1.26354
11518.500000	1.26185
11520.600000	1.26232
11522.600000	1.26273
11524.600000	1.26486
11526.700000	1.26823
11528.600000	1.26468
11530.600000	1.26416
11532.600000	1.26259
11534.600000	1.26493
11536.600000	1.26746
11538.600000	1.26641
11540.700000	1.26842
11542.600000	1.27297
11544.500000	1.27409
11546.600000	1.27634
11548.600000	1.27873
11549.200000	1.28206
11549.700000	1.27990
11550.100000	1.28322
11550.600000	1.28506
11551.100000	1.28398
11551.600000	1.28666
11552.100000	1.29486
11552.600000	1.29580
11553.100000	1.29522
11553.600000	1.29665
11554.100000	1.29828
11554.600000	1.30166
11555.100000	1.30291
11555.600000	1.31055
11556.100000	1.31871
11556.600000	1.32385
11557.100000	1.32906
11557.600000	1.33029
11558.100000	1.34410
11558.600000	1.35442
11559.100000	1.36212
11559.600000	1.37765
11560.100000	1.39378
11560.600000	1.40901
11561.100000	1.43156
11561.600000	1.45734
11562.100000	1.49102
11562.600000	1.53423
11563.100000	1.58673
11563.600000	1.64075
11564.100000	1.70972
11564.600000	1.79255
11565.100000	1.86436
11565.600000	1.93034
11566.100000	1.98195
11566.600000	1.99672
11567.100000	1.97778
11567.600000	1.94904
11568.100000	1.90954
11568.600000	1.86765
11569.100000	1.83659
11569.600000	1.80374
11570.100000	1.77752
11570.600000	1.76314
11571.100000	1.74875
11571.600000	1.73871
11572.100000	1.72970
11572.600000	1.72548
11573.100000	1.72436
11573.600000	1.72366
11574.100000	1.72703
11574.600000	1.72757
11575.100000	1.72668
11575.600000	1.72406
11576.100000	1.72576
11576.600000	1.72425
11577.100000	1.72339
11577.600000	1.72917
11578.100000	1.73162
11578.600000	1.73729
11579.100000	1.74098
11579.600000	1.74652
11580.100000	1.75248
11580.600000	1.75726
11581.100000	1.75633
11581.600000	1.75061
11582.100000	1.74554
11582.600000	1.74243
11583.100000	1.73856
11583.600000	1.73110
11584.100000	1.72718
11584.600000	1.72166
11585.500000	1.71794
11587.300000	1.71531
11588.500000	1.71986
11589.400000	1.72542
11590.400000	1.72389
11591.400000	1.72849
11592.500000	1.74037
11593.500000	1.74793
11594.700000	1.75222
11595.800000	1.75704
11596.900000	1.75922
11598.000000	1.75859
11599.200000	1.76116
11600.400000	1.76422
11601.600000	1.76332
11602.800000	1.76281
11604.000000	1.76374
11605.300000	1.76896
11606.600000	1.77353
11607.900000	1.77364
11609.300000	1.77655
11610.500000	1.77989
11611.900000	1.78792
11613.300000	1.79310
11614.600000	1.79443
11616.100000	1.79859
11617.500000	1.79745
11618.900000	1.79785
11620.400000	1.79660
11621.900000	1.78782
11623.400000	1.78237
11625.000000	1.77814
11626.400000	1.76880
11628.000000	1.75696
11629.600000	1.74671
11631.300000	1.73845
11632.800000	1.73324
11634.500000	1.73437
11636.100000	1.73376
11637.900000	1.73336
11639.500000	1.73208
11641.200000	1.73348
11642.900000	1.73575
11644.800000	1.73731
11646.400000	1.73432
11648.300000	1.73175
11650.000000	1.72951
11652.000000	1.73370
11653.700000	1.73104
11655.600000	1.73048
11657.400000	1.73308
11659.400000	1.73458
11661.300000	1.73788
11663.200000	1.74196
11665.200000	1.74408
11667.200000	1.74842
11669.100000	1.75381
11671.200000	1.76097
11673.200000	1.76161
11675.300000	1.76650
11677.300000	1.76737
11679.500000	1.76950
11681.600000	1.76541
11683.700000	1.75994
11685.800000	1.75270
11688.000000	1.74975
11690.100000	1.74052
11692.400000	1.73467
11694.700000	1.72925
11696.900000	1.72647
11699.000000	1.72584
11701.400000	1.72200
11703.600000	1.72010
11706.000000	1.72096
11708.400000	1.72094
11710.700000	1.71914
11713.000000	1.71819
11715.400000	1.71859
11717.800000	1.71848
11720.300000	1.71922
11722.800000	1.71731
11725.200000	1.71710
11727.600000	1.71787
11730.200000	1.71919
11732.700000	1.71848
11735.300000	1.72221
11737.900000	1.72752
11740.500000	1.72860
11742.800000	1.73081
11745.600000	1.73136
11748.300000	1.73267
11751.000000	1.73875
11753.600000	1.73282
11756.200000	1.73370
11759.000000	1.73430
11761.700000	1.72861
11764.500000	1.72675
11767.300000	1.72455
11770.000000	1.72340
11772.800000	1.71990
11775.600000	1.71559
11778.500000	1.71247
11781.400000	1.71052
11784.200000	1.70885
11787.100000	1.70554
11790.000000	1.70648
11793.000000	1.70508
11796.000000	1.70133
11798.900000	1.70166
11801.900000	1.70256
11804.900000	1.70001
11807.900000	1.69726
11811.100000	1.69710
11814.000000	1.69842
11817.200000	1.69634
11820.300000	1.69679
11823.500000	1.70079
11826.600000	1.69933
11829.700000	1.69904
11833.000000	1.70060
11836.100000	1.70036
11839.400000	1.69977
11842.600000	1.69903
11845.900000	1.70012
11849.200000	1.70031
11852.500000	1.69686
11855.700000	1.69557
11859.000000	1.69513
11862.500000	1.69260
11865.800000	1.69107
11869.300000	1.68893
11872.600000	1.68864
11876.100000	1.68409
11879.500000	1.68293
11883.000000	1.68261
11886.400000	1.68071
11890.000000	1.67776
11893.500000	1.67763
11897.100000	1.67440
11900.600000	1.67178
11904.200000	1.67136
11907.800000	1.67152
11911.400000	1.66900
11915.000000	1.66703
11918.700000	1.66820
11922.400000	1.66653
11926.100000	1.66644
11929.700000	1.66608
11933.500000	1.66571
11937.300000	1.66498
11941.100000	1.66463
11944.800000	1.66597
11948.600000	1.66330
11952.500000	1.66329
11956.400000	1.66297
11960.100000	1.66178
11964.000000	1.66198
11967.900000	1.65921
11971.900000	1.65786
11975.700000	1.65585
11979.800000	1.65556
11983.700000	1.65357
11987.800000	1.65123
11991.700000	1.65060
11995.800000	1.64815
11999.900000	1.64705
12003.900000	1.64430
12007.900000	1.64285
12012.200000	1.64053
12016.300000	1.64032
12020.300000	1.63857
12024.600000	1.63684
12028.700000	1.63547
12033.000000	1.63554
12037.100000	1.63304
12041.400000	1.63206
12045.700000	1.63163
12049.900000	1.63040
12054.200000	1.62919
12058.600000	1.62903
12062.900000	1.62806
12067.100000	1.62669
12071.700000	1.62641
12076.100000	1.62455
12080.400000	1.62416
12084.800000	1.62281
12089.300000	1.62255
12093.800000	1.62090
12098.200000	1.61935
12102.800000	1.61802
12107.300000	1.61654
12111.700000	1.61559
12116.400000	1.61416
12120.900000	1.61263
12125.600000	1.61192
12130.200000	1.60979
12134.800000	1.60878
12139.500000	1.60671
12144.100000	1.60396
12148.900000	1.60257
12153.600000	1.60194
12158.200000	1.59977
12163.100000	1.59776
12167.800000	1.59712
12172.500000	1.59506
12177.400000	1.59449
12182.200000	1.59284
12187.100000	1.59117
12192.000000	1.59052
12196.800000	1.58918
12201.700000	1.58776
12206.600000	1.58702
12211.600000	1.58499
12216.500000	1.58446
12221.500000	1.58265
12226.600000	1.58183
12231.600000	1.58084
12236.500000	1.57852
12241.700000	1.57762
12246.700000	1.57642
12251.700000	1.57438
12257.000000	1.57352
12262.100000	1.57209
12267.100000	1.57104
12272.400000	1.56959
12277.500000	1.56728
12282.600000	1.56604
12288.000000	1.56456
12293.200000	1.56264
12298.400000	1.56169
12303.800000	1.55993
