# XDI/1.0
# Column.1: energy(ev)
# Column.2: fluorescence_emission(au)
# Element.symbol: Pt
# Element.edge: L3
# Mono.name: Si 2 2 0
# Mono.d_spacing: 1.92
# Beamline.name: FAME
# Sample.name: Metallic Pt powder
# Sample.temperature: 293.0 +/- 2.0 K
# Sample.pressure: None
# Citation.doi:  https://doi.org/10.26302/SSHADE/EXPERIMENT_CL_20181123_001
# Citation.comments: Legens, Christ√®le; Fialho Batista, Ana Teresa (2018): Pt L3 edge XAS HERFD of metallic Pt powder at ambient conditions. SSHADE/FAME (OSUG Data Center). Dataset/Spectral Data. https://doi.org/10.26302/SSHADE/EXPERIMENT_CL_20181123_001Schmitt, Bernard; Bollard, Philippe; Albert, Damien; Garenne, Alexandre; Bonal, Lydie; and the SSHADE partner's consortium (2018). SSHADE: 'Solid Spectroscopy Hosting Architecture of Databases and Expertise'. OSUG Data Center. Service/Database infrastructure. https://doi.org/10.26302/SSHADE
# ////
#---------
# energy(ev)	fluorescence_emission(au)
11451.800259	19.49752
11453.900259	19.44247
11456.000259	19.94892
11458.000259	19.33624
11460.000259	19.59313
11461.900259	19.10967
11464.000259	19.91901
11465.900259	19.75007
11468.000259	19.44320
11470.000259	19.77287
11472.000260	19.54337
11474.000260	19.47874
11476.000260	19.44432
11478.000260	19.76526
11480.000260	19.34387
11482.000260	19.58955
11484.100260	19.41651
11486.000260	19.45740
11488.100260	19.50323
11490.100260	19.60117
11492.000260	19.52413
11494.000260	20.31226
11496.100260	19.75095
11498.100260	19.71452
11500.100260	19.88238
11502.100260	19.64221
11504.100260	19.81307
11506.000260	20.01904
11508.100260	19.98160
11510.100260	20.11874
11512.100260	19.91911
11514.100260	19.65946
11516.000261	19.87251
11518.100261	19.71952
11520.000261	19.91040
11522.100261	20.18024
11524.100261	20.25396
11526.100261	20.30735
11528.100261	20.38443
11530.000261	20.50790
11532.100261	20.44355
11534.000261	20.23422
11536.100261	20.33129
11538.100261	21.11680
11540.100261	21.04924
11542.100261	20.96322
11544.100261	21.60806
11546.100261	22.29685
11548.100261	23.27520
11550.100261	24.91663
11550.600261	25.38184
11551.100261	26.07387
11551.600261	26.62520
11552.100261	27.69861
11552.600261	28.86803
11553.100261	30.06415
11553.600261	31.37940
11554.100261	33.23832
11554.600261	35.41532
11555.100261	38.20663
11555.600261	41.78350
11556.100261	46.00175
11556.600261	50.94280
11557.000261	56.42713
11557.600261	67.38842
11558.100261	80.65570
11558.600261	98.07521
11559.100261	122.64811
11559.600261	156.45645
11560.100262	211.83921
11560.600262	295.78958
11561.100262	433.37789
11561.600262	667.92236
11562.100262	1046.90800
11562.600262	1708.32430
11563.100262	2636.97360
11563.600262	4112.96610
11564.100262	5548.00750
11564.600262	6451.95540
11565.100262	6363.13920
11565.600262	5713.72270
11566.100262	5023.75530
11566.600262	4456.63970
11567.100262	4002.05000
11567.600262	3663.50420
11568.100262	3416.05150
11568.600262	3204.18790
11569.100262	3090.12520
11569.600262	3017.28580
11570.100262	3010.08510
11570.600262	3011.72720
11571.000262	3005.06770
11571.600262	2961.93760
11572.100262	2900.84160
11572.600262	2833.18110
11573.100262	2781.66350
11573.600262	2738.63030
11574.100262	2720.48370
11574.600262	2718.85630
11575.100262	2743.53120
11575.600262	2764.24330
11576.100262	2808.63630
11576.600262	2865.02650
11577.100262	2932.19690
11577.600262	3012.91110
11578.100262	3082.99380
11578.600262	3150.84710
11579.100262	3205.44310
11579.600262	3238.57060
11580.100262	3259.15240
11580.600262	3237.57000
11581.100262	3180.23690
11581.600262	3085.74270
11582.100262	2960.77210
11582.600262	2847.27770
11583.100262	2753.14580
11583.600262	2717.61750
11584.100262	2715.66030
11584.600262	2747.37290
11585.100262	2782.41090
11585.500262	2804.80900
11586.100262	2811.26260
11587.000262	2776.68500
11588.800262	2792.25920
11589.900262	2889.99480
11590.900262	3025.42420
11591.900262	3197.18870
11593.000262	3331.88970
11594.000262	3335.70050
11595.000262	3223.25080
11596.100262	3091.90630
11597.300262	2992.76290
11598.400262	2905.41090
11599.500262	2867.17300
11600.700262	2884.29490
11601.900262	2929.13780
11603.100262	2944.12050
11604.300263	2897.73380
11605.600263	2830.87360
11606.800263	2795.11870
11608.100263	2783.54330
11609.400263	2819.43600
11610.700263	2877.20530
11612.100263	2922.71090
11613.400263	2962.18710
11614.800263	3007.71370
11616.100263	3057.00830
11617.500263	3102.36350
11619.000263	3116.41600
11620.500263	3111.89060
11622.000263	3070.53560
11623.400263	3034.78680
11624.900263	3008.62030
11626.500263	3003.01390
11628.000263	2987.02590
11629.600263	2956.74470
11631.100263	2955.00000
11632.700263	2964.24480
11634.300263	2960.81490
11636.100263	2951.21230
11637.600263	2927.79600
11639.300263	2887.09140
11641.000263	2861.63910
11642.800263	2846.34370
11644.400263	2841.51750
11646.200263	2833.67750
11648.000263	2828.88750
11649.800264	2830.86270
11651.600264	2838.72890
11653.400264	2862.15920
11655.200264	2899.10890
11657.200264	2931.09160
11658.900264	2960.06690
11660.900264	2970.18530
11662.800264	2979.16220
11664.800264	2965.41630
11666.600264	2956.80100
11668.700264	2957.82180
11670.700264	2940.08480
11672.700264	2938.48420
11674.700264	2929.05710
11676.800264	2916.89040
11678.900264	2921.80270
11680.900264	2925.92100
11683.100264	2935.09470
11685.200264	2953.17850
11687.300264	2966.40270
11689.500264	2960.24370
11691.700264	2960.76380
11693.900265	2946.33200
11696.100265	2932.78910
11698.300265	2911.42900
11700.600265	2867.03900
11702.900265	2843.98370
11705.200265	2833.23230
11707.600265	2825.11810
11709.800265	2840.04270
11712.200265	2842.93250
11714.600265	2861.71860
11716.900265	2880.25260
11719.400265	2897.12330
11721.900265	2905.88950
11724.200265	2905.83490
11726.700265	2918.13980
11729.200265	2927.24020
11731.700265	2930.74230
11734.200265	2933.10210
11736.800266	2937.56650
11739.400266	2926.72960
11741.900266	2923.93040
11744.500266	2921.27140
11747.200266	2934.70300
11749.800266	2953.36480
11752.400266	2961.40020
11755.100266	2978.27460
11757.800266	2971.10940
11760.500266	2950.23150
11763.300266	2923.07280
11766.000266	2896.99130
11768.800266	2883.00090
11771.600266	2870.55100
11774.300266	2875.32310
11777.200266	2870.58310
11780.000266	2871.67010
11782.900267	2862.28720
11785.800267	2871.99530
11788.600267	2864.25690
11791.600267	2872.92220
11794.500267	2873.31870
11797.500267	2890.88760
11800.500267	2903.73210
11803.400267	2907.98970
11806.500267	2941.29410
11809.500267	2944.29640
11812.600267	2959.63590
11815.600267	2976.76390
11818.700267	2971.21520
11821.900267	2953.85030
11824.900267	2946.16170
11828.100268	2934.00770
11831.200268	2909.57480
11834.500268	2877.21060
11837.700268	2871.87100
11840.900268	2861.45650
11844.100268	2860.01820
11847.300268	2865.30190
11850.700268	2876.24740
11853.900268	2890.68400
11857.300268	2895.68190
11860.500268	2880.63480
11864.000268	2863.05290
11867.400268	2872.40950
11870.700269	2867.60560
11874.100269	2887.27480
11877.500269	2889.04430
11881.100269	2882.96810
11884.500269	2915.36260
11888.000269	2922.75580
11891.400269	2934.10610
11895.100269	2945.55210
11898.500269	2941.74820
11902.100269	2930.97450
11905.600269	2910.34840
11909.400269	2905.77990
11912.900269	2880.99600
11916.500270	2865.31660
11920.200270	2867.75650
11924.000270	2860.57220
11927.600270	2858.47580
11931.300270	2860.04360
11935.000270	2869.48260
11938.800270	2870.27030
11942.500270	2869.91550
11946.300270	2869.58470
11950.100270	2865.25300
11954.100270	2850.38790
11957.800271	2843.89000
11961.700271	2848.95700
11965.500271	2848.04700
11969.500271	2869.98050
11973.400271	2883.76360
11977.300271	2880.42900
11981.200271	2883.33410
11985.300271	2890.46510
11989.300271	2874.90080
11993.200271	2888.38360
11997.300271	2876.55150
12001.400271	2881.06700
12005.400272	2853.68350
12009.500272	2840.07690
12013.700272	2822.89640
12017.700272	2805.64650
12021.900272	2810.07770
12026.100272	2815.97020
12030.300272	2815.09500
12034.400272	2832.28190
12038.600272	2824.18510
12043.000272	2829.84690
12047.200273	2833.96120
12051.500273	2830.52920
12055.700273	2832.40460
12060.100273	2837.01440
12064.400273	2847.87830
12068.700273	2836.80400
12073.100273	2835.96420
12077.500273	2828.90840
12082.000273	2831.38820
12086.300273	2833.13240
12090.900274	2833.50080
12095.200274	2829.09730
12099.700274	2807.16810
12104.300274	2798.97480
12108.800274	2780.60630
12113.300274	2788.07820
12117.900274	2786.52670
12122.500274	2787.63880
12127.000274	2782.48260
12131.600274	2774.19250
12136.400275	2758.96770
12141.000275	2762.36860
12145.600275	2760.26860
12150.400275	2763.98910
12155.000275	2769.73930
12159.800275	2774.78290
12164.500275	2782.09320
12169.400275	2769.33990
12174.100275	2775.81500
12178.900276	2775.16670
12183.800276	2782.04280
12188.600276	2766.35030
12193.400276	2762.79390
12198.400276	2751.79590
12203.200276	2755.89560
12208.100276	2759.77400
12213.200276	2749.77550
12218.000276	2751.98480
12223.000277	2739.92620
12228.100277	2736.17170
12233.000277	2737.65320
12238.000277	2724.09650
12243.200277	2729.98840
12248.200277	2711.49890
12253.300277	2705.70720
12258.400277	2699.42070
12263.600277	2689.87390
12268.600278	2698.28760
12273.900278	2671.50340
12279.100278	2682.52430
12284.200278	2698.75330
12289.500278	2710.51780
12294.700278	2719.10160
12300.000278	2704.94460
12305.300278	2724.85020
12310.600278	2700.40530
12315.900279	2697.51870
12321.200279	2695.52450
12326.800279	2699.39690
12331.700279	2688.83560
12337.400279	2675.03930
12342.800279	2672.17250
12348.200279	2669.32080
12353.700279	2668.89980
12359.100280	2662.92650
12364.500280	2665.04890
12370.200280	2669.42370
12375.600280	2635.36780
12381.100280	2648.37510
12386.900280	2656.47670
12392.300280	2647.11200
12397.900280	2635.53110
12403.600281	2617.01280
12409.200281	2634.31050
