# XDI/1.0
# Column.1: energy(ev)
# Column.2: fluorescence_emission(au)
# Element.symbol: Pt
# Element.edge: L3
# Mono.name: Si 2 2 0
# Mono.d_spacing: 1.92
# Beamline.name: FAME
# Sample.name: Pellet of PtS2 mixed with BN
# Sample.temperature: 25.0 +/- -268.1 °C
# Sample.pressure: 1.0 bar
# Citation.doi:  https://doi.org/10.26302/SSHADE/EXPERIMENT_GP_20181107_001
# Citation.comments: Laskar, Clément; Pokrovski, Gleb; Bazarkina, Elena; Hazemann, Jean-Louis (2018): Pt L3 edge XAS HERFD and XAS transmission of platinum hydrogensulfide complexes in geological fluids (impact of sulfur on the transfer of noble metals by hydrothermal fluids). SSHADE/FAME (OSUG Data Center). Dataset/Spectral Data. https://doi.org/10.26302/SSHADE/EXPERIMENT_GP_20181107_001Schmitt, Bernard; Bollard, Philippe; Albert, Damien; Garenne, Alexandre; Bonal, Lydie; and the SSHADE partner's consortium (2018). SSHADE: 'Solid Spectroscopy Hosting Architecture of Databases and Expertise'. OSUG Data Center. Service/Database infrastructure. https://doi.org/10.26302/SSHADE
# ////
#---------
# energy(ev)	fluorescence_emission(au)
11451.500000	5.39730
11457.700000	5.32087
11462.900000	5.21716
11467.900000	5.16955
11473.000000	5.22517
11478.100000	5.54033
11483.100000	5.36979
11488.200000	5.45421
11493.100000	5.61831
11498.200000	5.51001
11503.200000	5.41319
11508.200000	5.49791
11513.300000	5.24894
11518.300000	5.50536
11523.200000	5.52289
11528.300000	5.41937
11533.300000	5.49011
11538.300000	5.77395
11543.300000	6.06920
11548.200000	6.95519
11553.400000	9.95903
11553.700000	10.06252
11553.800000	10.85068
11554.200000	11.02293
11554.500000	11.34457
11554.800000	11.57603
11555.100000	12.44563
11555.400000	13.31294
11555.700000	14.09778
11556.000000	14.73021
11556.300000	15.76833
11556.600000	16.58110
11556.900000	17.82134
11557.200000	18.99305
11557.500000	21.01272
11557.800000	22.96413
11558.100000	25.20589
11558.400000	27.80350
11558.700000	31.12272
11559.000000	34.34294
11559.300000	38.13940
11559.600000	42.79190
11559.900000	49.64367
11560.200000	56.34630
11560.500000	65.99811
11560.800000	78.47846
11561.100000	92.21490
11561.400000	110.88214
11561.700000	134.59731
11562.000000	164.07927
11562.300000	206.28378
11562.600000	260.06713
11562.900000	333.85831
11563.200000	425.32919
11563.500000	571.22901
11563.800000	770.38121
11564.100000	1030.39620
11564.400000	1398.71220
11564.700000	1905.73160
11565.000000	2564.39350
11565.300000	3385.61570
11565.600000	4398.22130
11565.900000	5451.95620
11566.200000	6488.73750
11566.500000	7392.43520
11566.800000	8055.90250
11567.100000	8374.37880
11567.400000	8309.35420
11567.700000	7891.50130
11568.000000	7258.45940
11568.300000	6498.68360
11568.600000	5742.53260
11568.900000	5020.78660
11569.200000	4446.65640
11569.500000	4006.62570
11569.800000	3715.88020
11570.100000	3496.72640
11570.400000	3336.19330
11570.700000	3232.40030
11571.000000	3146.48920
11571.300000	3085.90540
11571.600000	3010.31150
11571.900000	2943.86080
11572.200000	2882.89060
11572.500000	2836.98940
11572.800000	2803.86510
11573.100000	2786.51570
11574.000000	2846.90910
11575.000000	3020.86610
11576.100000	3187.21810
11577.100000	3216.83430
11578.100000	3120.07750
11579.100000	2970.38930
11580.100000	2823.51000
11581.100000	2711.06210
11582.100000	2639.34330
11583.100000	2600.85590
11584.100000	2588.92860
11585.100000	2602.69770
11586.100000	2625.60090
11587.100000	2642.42540
11588.100000	2667.82760
11589.100000	2688.10740
11590.000000	2705.60200
11591.100000	2741.40960
11592.100000	2772.39240
11593.100000	2793.38040
11594.100000	2825.53650
11595.100000	2850.90900
11596.100000	2880.66060
11597.100000	2910.29820
11598.100000	2925.90000
11599.100000	2947.67990
11600.100000	2966.84400
11601.100000	2977.53880
11602.100000	2987.10850
11603.000000	3004.91700
11604.100000	3016.16010
11605.100000	3017.99970
11606.100000	3034.01030
11607.100000	3046.40600
11608.100000	3066.96460
11609.100000	3079.44420
11610.100000	3104.17870
11611.100000	3123.20770
11612.100000	3146.69170
11614.000000	3177.00000
11616.100000	3195.53230
11618.000000	3186.37330
11620.200000	3143.07500
11622.200000	3090.87770
11624.100000	3037.69870
11626.100000	2981.43060
11628.100000	2928.80000
11630.100000	2879.95000
11632.000000	2844.92940
11634.100000	2810.05000
11636.200000	2791.17000
11638.100000	2779.54080
11640.100000	2773.61420
11642.100000	2764.81390
11644.100000	2779.46080
11646.100000	2782.64430
11648.200000	2790.36340
11650.100000	2796.92760
11652.100000	2800.76980
11655.100000	2819.61000
11655.800000	2818.50610
11659.300000	2840.47650
11661.300000	2860.58130
11663.200000	2874.53030
11665.100000	2891.29080
11667.000000	2915.67240
11669.000000	2934.45440
11670.900000	2953.55990
11672.900000	2975.08060
11674.900000	2987.70780
11676.900000	3001.40760
11679.100000	2998.19760
11681.000000	2991.36550
11683.100000	2982.16930
11685.200000	2972.08590
11687.300000	2957.61890
11689.500000	2935.75260
11691.700000	2911.80120
11693.900000	2891.37690
11696.000000	2874.63000
11698.200000	2855.81020
11700.500000	2848.84990
11702.700000	2834.77080
11705.000000	2825.96800
11707.300000	2821.07820
11709.600000	2817.13280
11711.900000	2809.52230
11714.300000	2810.65370
11716.600000	2805.33470
11719.000000	2811.01550
11721.500000	2816.41390
11723.800000	2819.55430
11726.300000	2822.78460
11728.800000	2828.08240
11731.100000	2830.12300
11733.700000	2849.74020
11736.300000	2851.50870
11738.700000	2858.42420
11741.300000	2870.12990
11743.900000	2880.68280
11746.400000	2886.39480
11749.100000	2892.14140
11751.700000	2899.27250
11754.400000	2902.94900
11757.000000	2907.07530
11759.600000	2909.09950
11762.400000	2905.17900
11765.200000	2897.55490
11767.900000	2895.51330
11770.600000	2887.70630
11773.400000	2883.36240
11776.200000	2880.78800
11779.100000	2868.16450
11781.800000	2855.09590
11784.700000	2850.27670
11787.600000	2845.36070
11790.500000	2839.28110
11793.400000	2832.31950
11796.300000	2822.81010
11799.200000	2826.56980
11802.200000	2817.20980
11805.200000	2815.11120
11808.300000	2813.32490
11811.200000	2814.87360
11814.300000	2815.99220
11817.300000	2818.35060
11820.400000	2825.01910
11823.600000	2817.71360
11826.700000	2818.00180
11829.800000	2832.14410
11832.900000	2832.79470
11836.200000	2830.96420
11839.300000	2840.14830
11842.500000	2840.15990
11845.700000	2837.90260
11849.000000	2835.80630
11852.400000	2838.90860
11855.600000	2834.45350
11858.900000	2839.60660
11862.200000	2841.55690
11865.600000	2833.63420
11868.900000	2833.51770
11872.300000	2829.20100
11875.600000	2825.37190
11879.100000	2824.64060
11882.600000	2815.91780
11886.000000	2816.03000
11889.500000	2807.02780
11893.000000	2812.52900
11896.600000	2804.00870
11900.000000	2802.57630
11903.600000	2800.65790
11907.200000	2793.58310
11910.800000	2792.08980
11914.400000	2796.91400
11918.000000	2792.36180
11921.600000	2791.30610
11925.400000	2790.79700
11929.000000	2785.34030
11932.700000	2789.60590
11936.400000	2786.30690
11940.200000	2796.55220
11943.900000	2794.90520
11947.700000	2789.44930
11951.500000	2792.23300
11955.400000	2791.11970
11959.200000	2793.03890
11963.000000	2784.99760
11966.900000	2789.02360
11970.900000	2788.09620
11974.700000	2786.42020
11978.600000	2789.57700
11982.600000	2777.69610
11986.600000	2777.86020
11990.500000	2777.34400
11994.500000	2775.79980
11998.600000	2772.34840
12002.600000	2773.01840
12006.700000	2763.82650
12010.700000	2767.62310
12014.900000	2765.53800
12019.000000	2759.91810
12023.100000	2759.99740
12027.200000	2757.14470
12031.500000	2748.40780
12035.600000	2746.43660
12039.800000	2747.42950
12044.100000	2747.60250
12048.300000	2741.75010
12052.600000	2743.41330
12056.800000	2736.94840
12061.200000	2738.75790
12065.500000	2736.74950
12069.800000	2732.76320
12074.300000	2731.49510
12078.600000	2726.89660
12083.000000	2730.94500
12087.400000	2728.29650
12091.900000	2724.11710
12096.300000	2723.42900
12100.800000	2719.33150
12105.400000	2716.21920
12109.800000	2715.38850
12114.300000	2715.54490
12118.900000	2710.07050
12123.500000	2713.37430
12128.100000	2708.20770
12132.600000	2706.57420
12137.300000	2702.63650
12141.900000	2703.57720
12146.500000	2697.51530
12151.400000	2697.87310
12156.000000	2697.46640
12160.700000	2693.26590
12165.500000	2691.65860
12170.200000	2690.09100
12175.000000	2683.73840
12179.800000	2676.78110
12184.700000	2681.20660
12189.500000	2680.37910
12194.300000	2674.35950
12199.200000	2670.95480
12204.100000	2665.09520
12209.000000	2670.77950
12214.000000	2660.98230
12218.800000	2666.34840
12223.800000	2662.99490
12228.900000	2661.09280
12233.800000	2660.65310
12238.800000	2652.85900
12244.000000	2653.16310
12249.000000	2648.74540
12254.000000	2645.42370
12259.200000	2647.95660
12264.300000	2641.84350
12269.400000	2637.30070
12274.600000	2634.22640
12279.700000	2635.43780
12284.900000	2623.96270
12290.200000	2628.77690
12295.400000	2623.53660
12300.600000	2620.52870
12306.000000	2616.46480
