# XDI/1.0
# Column.1: energy(ev)
# Column.2: fluorescence_emission(au)
# Element.symbol: U
# Element.edge: L3
# Mono.name: Si 2 2 0
# Mono.d_spacing: 1.92
# Beamline.name: FAME
# Sample.name: U(VI)-uranyl solution
# Sample.temperature: 25.0 +/- 5.0 Â°C
# Sample.pressure: 600.0 bar
# Citation.doi:  https://doi.org/10.26302/SSHADE/EXPERIMENT_EB_20180618_001
# Citation.comments: Bazarkina, Elena; Hazemann, Jean-Louis (2018): U L3 edge XAS HERFD of U(IV)-uraninite and U(VI)-uranyl references. SSHADE/FAME (OSUG Data Center). Dataset/Spectral Data. https://doi.org/10.26302/SSHADE/EXPERIMENT_EB_20180618_001Schmitt, Bernard; Bollard, Philippe; Albert, Damien; Garenne, Alexandre; Bonal, Lydie; and the SSHADE partner's consortium (2018). SSHADE: 'Solid Spectroscopy Hosting Architecture of Databases and Expertise'. OSUG Data Center. Service/Database infrastructure. https://doi.org/10.26302/SSHADE
# ////
#---------
# energy(ev)	fluorescence_emission(au)
17006.100000	0.25177
17012.000000	0.26486
17017.100000	0.25753
17022.200000	0.24517
17027.400000	0.26811
17032.300000	0.23531
17037.200000	0.24538
17042.300000	0.26796
17047.200000	0.22037
17052.300000	0.19590
17057.500000	0.21957
17062.400000	0.23315
17067.400000	0.23845
17072.500000	0.20155
17077.400000	0.23490
17082.600000	0.23314
17087.700000	0.19953
17092.500000	0.24211
17097.600000	0.24427
17102.600000	0.21076
17107.500000	0.22609
17112.600000	0.24394
17117.700000	0.21735
17122.500000	0.23298
17127.600000	0.26099
17132.700000	0.24044
17137.500000	0.24022
17138.200000	0.22690
17138.600000	0.23957
17139.000000	0.24334
17139.600000	0.23421
17140.300000	0.23229
17140.800000	0.26457
17141.200000	0.24314
17141.700000	0.25692
17142.200000	0.28465
17142.700000	0.26238
17143.200000	0.26211
17143.700000	0.24132
17144.200000	0.25171
17144.800000	0.24877
17145.200000	0.24842
17145.700000	0.24301
17146.200000	0.28212
17146.800000	0.28214
17147.200000	0.24946
17147.700000	0.23909
17148.300000	0.27498
17148.700000	0.26812
17149.200000	0.27938
17149.700000	0.28496
17150.200000	0.27466
17150.700000	0.29303
17151.200000	0.30163
17151.700000	0.31032
17152.200000	0.30130
17152.800000	0.31404
17153.200000	0.30757
17153.700000	0.34310
17154.200000	0.33868
17154.700000	0.35277
17155.200000	0.35441
17155.700000	0.40067
17156.300000	0.44282
17156.700000	0.48864
17157.200000	0.43336
17157.800000	0.49932
17158.300000	0.50390
17158.700000	0.58348
17159.200000	0.66452
17159.700000	0.70959
17160.300000	0.88993
17160.700000	0.95863
17161.200000	1.12366
17161.800000	1.44216
17162.200000	1.62868
17162.700000	2.17549
17163.200000	2.73457
17163.800000	3.24986
17164.200000	4.26416
17164.700000	5.26210
17165.200000	6.68167
17165.800000	7.91328
17166.200000	9.29405
17166.700000	10.35112
17167.200000	11.57659
17167.700000	12.57819
17168.200000	13.49224
17168.700000	14.99349
17169.200000	17.09153
17169.700000	19.99983
17170.200000	24.53671
17170.700000	30.87928
17171.300000	40.88852
17171.700000	50.27338
17172.200000	63.56154
17172.800000	80.84144
17173.300000	93.87355
17173.700000	104.89649
17174.200000	115.21946
17174.700000	122.17515
17175.300000	122.10799
17175.700000	118.41543
17176.200000	110.07515
17176.700000	100.80770
17177.300000	90.57576
17177.700000	81.74533
17178.200000	74.25902
17178.800000	67.63894
17179.300000	63.03162
17179.700000	59.79324
17180.200000	57.26738
17180.800000	54.71990
17181.200000	53.80681
17181.700000	53.33939
17182.200000	53.45905
17182.800000	53.48249
17183.200000	53.89648
17183.700000	54.51794
17184.200000	55.12575
17184.700000	55.46723
17185.200000	56.48582
17185.700000	56.15418
17186.200000	57.12183
17186.700000	56.99151
17187.200000	57.02019
17187.700000	56.70564
17188.300000	56.60617
17188.700000	56.30143
17189.200000	56.09665
17189.700000	55.94757
17190.300000	55.51543
17190.700000	55.46445
17191.200000	54.94465
17191.700000	54.63612
17192.300000	54.05491
17192.700000	53.98712
17193.200000	53.36162
17193.800000	52.70276
17194.300000	52.07719
17194.700000	51.48038
17195.200000	50.99469
17195.700000	50.63388
17196.200000	49.81104
17196.700000	49.55419
17197.200000	49.45467
17197.700000	48.90029
17198.200000	48.37834
17198.700000	48.43038
17199.200000	47.70048
17199.700000	47.23957
17200.200000	47.82732
17200.700000	47.14944
17201.200000	47.78730
17201.800000	47.74952
17202.200000	48.04088
17202.700000	48.24029
17203.300000	48.16806
17203.700000	48.51200
17204.300000	48.97515
17204.700000	48.87584
17205.300000	49.51887
17205.800000	49.70549
17206.200000	49.83324
17206.700000	50.02664
17207.200000	50.49227
17207.700000	50.81977
17208.200000	51.13700
17208.700000	51.40641
17209.300000	51.69677
17209.800000	51.74073
17210.200000	51.85370
17210.700000	51.70121
17211.200000	51.63976
17211.700000	51.56318
17212.200000	51.34220
17212.700000	51.58322
17213.200000	51.19359
17213.700000	51.47217
17214.200000	51.23764
17214.700000	50.93799
17215.200000	50.62348
17215.700000	50.73581
17216.200000	50.31404
17216.800000	50.09542
17218.700000	49.50569
17219.700000	48.35781
17222.600000	46.88664
17224.100000	46.10579
17225.700000	45.48638
17227.200000	44.65307
17228.700000	44.25299
17230.300000	43.24779
17231.900000	42.60466
17233.600000	43.02395
17235.300000	42.62049
17237.000000	42.75133
17238.600000	42.58098
17240.300000	42.95170
17242.000000	43.39068
17243.700000	43.92180
17245.500000	44.92664
17247.200000	44.99899
17249.000000	45.53674
17250.900000	45.56661
17252.700000	46.14531
17254.500000	46.89478
17256.400000	47.44047
17258.400000	47.52370
17260.200000	48.08520
17262.100000	48.91603
17264.000000	48.67851
17266.100000	48.71917
17268.100000	48.79244
17270.100000	49.43606
17272.100000	49.28836
17274.200000	48.89168
17276.100000	48.61239
17278.200000	48.43058
17280.300000	48.93949
17282.500000	48.70433
17284.600000	48.12795
17286.700000	47.34471
17288.900000	47.02296
17291.200000	46.94799
17293.300000	46.73342
17295.500000	46.60786
17297.800000	46.15527
17300.200000	46.04456
17302.400000	46.16566
17304.700000	45.83138
17307.100000	45.34225
17309.300000	45.66168
17311.600000	45.26143
17314.100000	45.69548
17316.500000	44.88792
17318.900000	45.65847
17321.400000	45.81972
17323.800000	45.77214
17326.200000	46.29391
17328.800000	46.09157
17331.200000	46.35393
17333.900000	46.04945
17336.300000	46.26931
17339.100000	46.31209
17341.400000	46.76586
17344.200000	46.37273
17346.800000	46.25180
17349.400000	46.27186
17352.000000	46.60212
17354.800000	46.50032
17357.400000	46.48858
17360.100000	46.63540
17362.900000	46.80811
17365.700000	46.06396
17368.500000	46.27822
17371.300000	46.39347
17374.000000	46.15086
17376.800000	46.38435
17379.800000	46.04539
17382.600000	46.23251
17385.600000	46.82614
17388.400000	46.26002
17391.300000	46.16206
17394.300000	46.56886
17397.300000	46.63985
17400.300000	46.37588
17403.300000	46.69780
17406.200000	46.71947
17409.300000	46.28631
17412.400000	46.60807
17415.400000	46.71238
17418.600000	46.41834
17421.600000	46.60014
17424.700000	46.67702
17428.000000	46.74222
17431.100000	46.36730
17434.400000	46.17569
17437.500000	46.11436
17440.700000	46.19478
17444.000000	46.58729
17447.200000	46.27489
17450.600000	46.04177
17453.800000	46.22577
17457.100000	45.86334
17460.600000	46.25362
17463.900000	46.04693
17467.400000	45.81993
17470.600000	46.33045
17474.000000	46.35861
17477.600000	46.10742
17480.900000	45.81549
17484.500000	46.05220
17487.900000	46.13580
17491.500000	46.04874
17495.000000	46.43153
17498.600000	46.28872
17502.100000	45.93781
17505.600000	46.22086
17509.400000	46.48277
17512.900000	46.14102
17516.600000	46.57972
17520.200000	46.56827
17523.900000	46.35797
17527.700000	46.07540
17531.500000	46.44862
17535.100000	46.45437
17538.800000	46.66340
17542.700000	46.43756
17546.400000	46.28308
17550.200000	46.63680
17554.000000	46.56809
17557.900000	46.54564
17561.800000	46.84061
17565.800000	46.27968
17569.500000	46.95128
17573.500000	46.27960
17577.400000	46.76941
17581.500000	46.29857
17585.300000	46.37222
17589.400000	46.31008
17593.500000	46.20762
17597.600000	46.11999
17601.500000	46.54473
17605.600000	46.25823
17609.700000	46.09193
17613.900000	46.13394
17617.900000	46.34693
17622.100000	46.43605
17626.400000	46.10212
17630.700000	46.23454
17634.700000	46.35670
17638.900000	45.79545
17643.200000	46.81615
17647.500000	46.31743
17651.700000	45.88412
17656.000000	45.88175
17660.400000	46.30401
17664.800000	46.23960
17669.000000	45.97199
17673.500000	46.18024
17677.800000	46.41797
17682.300000	46.04462
17686.600000	46.38381
17691.100000	46.38013
17695.700000	46.33296
17700.200000	46.50287
17704.600000	46.75784
