# XDI/1.0
# Column.1: energy(ev)
# Column.2: fluorescence_emission(au)
# Element.symbol: W
# Element.edge: L3
# Mono.name: Si 2 2 0
# Mono.d_spacing: 1.92
# Beamline.name: FAME
# Sample.name: Pellet of Na2WO4â€¢2(H2O) mixed with BN
# Sample.temperature: 10.0 +/- 1.0 K
# Sample.pressure: None
# Citation.doi:  https://doi.org/10.26302/SSHADE/EXPERIMENT_OP_20201209_001
# Citation.comments: Proux, Olivier (2020): W L3 edge XAS transmission and XAS fluorescence of W reference compounds at 10K. SSHADE/FAME (OSUG Data Center). Dataset/Spectral Data. https://doi.org/10.26302/SSHADE/EXPERIMENT_OP_20201209_001Schmitt, Bernard; Bollard, Philippe; Albert, Damien; Garenne, Alexandre; Bonal, Lydie; and the SSHADE partner's consortium (2018). SSHADE: 'Solid Spectroscopy Hosting Architecture of Databases and Expertise'. OSUG Data Center. Service/Database infrastructure. https://doi.org/10.26302/SSHADE
# ////
#---------
# energy(ev)	fluorescence_emission(au)
10052.649000	0.00043
10056.349000	0.00045
10059.349000	0.00045
10062.449000	0.00047
10065.449000	0.00048
10068.549000	0.00049
10071.449000	0.00051
10074.449000	0.00050
10077.449000	0.00052
10080.449000	0.00053
10083.549000	0.00055
10086.549000	0.00055
10089.649000	0.00059
10092.649000	0.00061
10095.649000	0.00061
10098.749000	0.00063
10101.649000	0.00066
10104.749000	0.00067
10107.749000	0.00070
10110.749000	0.00071
10113.749000	0.00077
10116.649000	0.00078
10119.749000	0.00081
10122.649000	0.00084
10125.749000	0.00088
10128.749000	0.00091
10131.749000	0.00097
10134.749000	0.00100
10137.649000	0.00107
10140.749000	0.00113
10143.749000	0.00120
10146.749000	0.00126
10149.749000	0.00133
10152.749000	0.00145
10155.749000	0.00155
10158.649000	0.00165
10161.749000	0.00183
10164.749000	0.00196
10167.749000	0.00215
10168.249000	0.00219
10168.349000	0.00221
10168.649000	0.00223
10168.949000	0.00225
10169.249000	0.00225
10169.549000	0.00227
10169.849000	0.00229
10170.149000	0.00231
10170.449000	0.00236
10170.749000	0.00236
10171.049000	0.00239
10171.349000	0.00242
10171.649000	0.00244
10171.949000	0.00248
10172.249000	0.00250
10172.549000	0.00252
10172.849000	0.00256
10173.149000	0.00257
10173.449000	0.00265
10173.749000	0.00264
10174.049000	0.00265
10174.349000	0.00269
10174.649000	0.00272
10174.949000	0.00277
10175.249000	0.00281
10175.549000	0.00285
10175.849000	0.00286
10176.149000	0.00290
10176.449000	0.00294
10176.749000	0.00294
10177.049000	0.00300
10177.349000	0.00304
10177.649000	0.00309
10177.949000	0.00313
10178.249000	0.00316
10178.549000	0.00322
10178.849000	0.00325
10179.149000	0.00329
10179.449000	0.00335
10179.749000	0.00339
10180.049000	0.00344
10180.349000	0.00348
10180.649000	0.00354
10180.949000	0.00355
10181.249000	0.00361
10181.549000	0.00366
10181.849000	0.00371
10182.149000	0.00382
10182.449000	0.00385
10182.749000	0.00387
10183.049000	0.00394
10183.349000	0.00402
10183.649000	0.00411
10183.949000	0.00416
10184.249000	0.00421
10184.549000	0.00428
10184.849000	0.00434
10185.149000	0.00443
10185.449000	0.00450
10185.749000	0.00459
10186.049000	0.00466
10186.349000	0.00471
10186.649000	0.00481
10186.949000	0.00493
10187.249000	0.00503
10187.549000	0.00509
10187.849000	0.00518
10188.149000	0.00523
10188.449000	0.00535
10188.749000	0.00546
10189.049000	0.00554
10189.349000	0.00567
10189.649000	0.00578
10189.949000	0.00591
10190.249000	0.00605
10190.549000	0.00616
10190.849000	0.00630
10191.149000	0.00649
10191.449000	0.00659
10191.749000	0.00673
10192.049000	0.00686
10192.349000	0.00704
10192.649000	0.00721
10192.949000	0.00738
10193.249000	0.00755
10193.549000	0.00770
10193.849000	0.00793
10194.149000	0.00812
10194.449000	0.00832
10194.749000	0.00852
10195.049000	0.00879
10195.349000	0.00902
10195.649000	0.00919
10195.949000	0.00950
10196.249000	0.00981
10196.549000	0.01006
10196.849000	0.01037
10197.149000	0.01069
10197.449000	0.01105
10197.749000	0.01133
10198.049000	0.01167
10198.349000	0.01205
10198.649000	0.01246
10198.949000	0.01282
10199.249000	0.01333
10199.549000	0.01383
10199.849000	0.01426
10200.149000	0.01474
10200.449000	0.01541
10200.749000	0.01590
10201.049000	0.01666
10201.349000	0.01727
10201.649000	0.01807
10201.949000	0.01880
10202.249000	0.01964
10202.549000	0.02053
10202.849000	0.02146
10203.149000	0.02253
10203.449000	0.02346
10203.749000	0.02464
10204.049000	0.02582
10204.349000	0.02718
10204.649000	0.02878
10204.949000	0.03032
10205.249000	0.03213
10205.549000	0.03404
10205.849000	0.03593
10206.149000	0.03808
10206.449000	0.04060
10206.749000	0.04328
10207.049000	0.04629
10207.349000	0.04945
10207.649000	0.05287
10207.949000	0.05653
10208.249000	0.06022
10208.549000	0.06437
10208.849000	0.06878
10209.149000	0.07344
10209.449000	0.07850
10209.749000	0.08387
10210.049000	0.08899
10210.349000	0.09419
10210.649000	0.09931
10210.949000	0.10395
10211.249000	0.10820
10211.549000	0.11184
10211.849000	0.11546
10212.149000	0.11832
10212.449000	0.12040
10212.749000	0.12242
10213.049000	0.12407
10213.349000	0.12463
10213.649000	0.12391
10213.949000	0.12175
10214.249000	0.11979
10214.549000	0.11761
10214.849000	0.11506
10215.149000	0.11202
10215.449000	0.10839
10215.749000	0.10367
10216.049000	0.09891
10216.349000	0.09503
10216.649000	0.09191
10216.949000	0.08843
10217.249000	0.08544
10217.549000	0.08282
10217.849000	0.08062
10218.149000	0.07877
10218.449000	0.07712
10218.749000	0.07584
10219.049000	0.07478
10219.349000	0.07423
10219.849000	0.07331
10220.049000	0.07296
10221.249000	0.07207
10222.149000	0.07162
10222.849000	0.07128
10223.649000	0.07070
10224.449000	0.06993
10225.249000	0.06862
10226.049000	0.06702
10226.849000	0.06523
10227.749000	0.06339
10228.649000	0.06174
10229.549000	0.06071
10230.449000	0.06002
10231.349000	0.05950
10232.249000	0.05949
10233.249000	0.05927
10234.349000	0.05895
10235.349000	0.05859
10236.349000	0.05819
10237.449000	0.05717
10238.449000	0.05612
10239.549000	0.05492
10240.649000	0.05372
10241.749000	0.05290
10242.849000	0.05226
10244.049000	0.05199
10245.249000	0.05208
10246.549000	0.05225
10247.649000	0.05266
10248.949000	0.05317
10250.149000	0.05376
10251.449000	0.05435
10252.749000	0.05494
10254.049000	0.05561
10255.349000	0.05620
10256.749000	0.05668
10258.149000	0.05715
10259.549000	0.05730
10260.849000	0.05763
10262.349000	0.05786
10263.749000	0.05816
10265.249000	0.05848
10266.649000	0.05869
10268.249000	0.05913
10269.749000	0.05955
10271.249000	0.06001
10272.849000	0.06021
10274.449000	0.06066
10275.949000	0.06088
10277.649000	0.06120
10279.249000	0.06130
10280.949000	0.06151
10282.549000	0.06153
10284.349000	0.06146
10285.949000	0.06154
10287.649000	0.06135
10289.449000	0.06128
10291.249000	0.06106
10292.949000	0.06061
10294.849000	0.06039
10296.649000	0.05996
10298.449000	0.05970
10300.349000	0.05939
10302.249000	0.05932
10304.049000	0.05910
10306.049000	0.05871
10307.949000	0.05842
10309.849000	0.05829
10311.949000	0.05812
10313.849000	0.05795
10315.849000	0.05771
10317.949000	0.05759
10319.949000	0.05754
10322.049000	0.05787
10324.149000	0.05776
10326.249000	0.05766
10328.349000	0.05773
10330.449000	0.05777
10332.649000	0.05781
10334.849000	0.05790
10337.049000	0.05796
10339.249000	0.05807
10341.449000	0.05822
10343.749000	0.05831
10346.049000	0.05855
10348.249000	0.05872
10350.649000	0.05898
10352.949000	0.05912
10355.349000	0.05935
10357.749000	0.05955
10360.049000	0.05982
10362.449000	0.05997
10364.849000	0.06005
10367.349000	0.06011
10369.749000	0.06018
10372.349000	0.06024
10374.749000	0.06034
10377.349000	0.06028
10379.849000	0.06031
10382.349000	0.06022
10384.949000	0.06018
10387.549000	0.06016
10390.249000	0.06007
10392.849000	0.06015
10395.549000	0.05986
10398.149000	0.05973
10400.949000	0.05956
10403.549000	0.05957
10406.349000	0.05952
10408.949000	0.05940
10411.849000	0.05930
10414.549000	0.05929
10417.349000	0.05936
10420.149000	0.05922
10423.049000	0.05915
10425.849000	0.05906
10428.849000	0.05890
10431.649000	0.05879
10434.649000	0.05879
10437.549000	0.05881
10440.449000	0.05884
10443.449000	0.05875
10446.449000	0.05878
10449.449000	0.05890
10452.449000	0.05895
10455.549000	0.05886
10458.649000	0.05892
10461.749000	0.05917
10464.749000	0.05921
10468.049000	0.05925
10471.049000	0.05933
10474.249000	0.05955
10477.349000	0.05959
10480.649000	0.05953
10483.849000	0.05969
10487.049000	0.05978
10490.349000	0.05981
10493.549000	0.05983
10496.949000	0.05972
10500.149000	0.05977
10503.549000	0.05989
10506.949000	0.05972
10510.149000	0.05973
10513.649000	0.05976
10517.049000	0.05983
10520.449000	0.05982
10523.949000	0.05971
10527.349000	0.05976
10530.849000	0.05966
10534.349000	0.05954
10537.849000	0.05949
10541.449000	0.05958
10544.949000	0.05941
10548.549000	0.05948
10552.249000	0.05936
10555.749000	0.05940
10559.449000	0.05935
10563.049000	0.05922
10566.649000	0.05919
10570.449000	0.05917
10574.149000	0.05903
10577.849000	0.05906
10581.549000	0.05921
10585.349000	0.05903
10589.149000	0.05915
10592.949000	0.05910
10596.749000	0.05910
10600.549000	0.05895
10604.449000	0.05912
10608.349000	0.05904
10612.249000	0.05903
10616.149000	0.05912
10620.049000	0.05916
10624.049000	0.05917
10627.949000	0.05919
10632.049000	0.05918
10635.949000	0.05923
10640.049000	0.05911
10644.149000	0.05921
10648.049000	0.05924
10652.249000	0.05914
10656.349000	0.05920
10660.349000	0.05926
10664.649000	0.05914
10668.749000	0.05924
10672.849000	0.05914
10677.149000	0.05916
10681.349000	0.05913
10685.549000	0.05911
10689.849000	0.05919
10694.149000	0.05907
10698.449000	0.05908
10702.749000	0.05903
10707.049000	0.05892
10711.449000	0.05889
10715.849000	0.05877
10720.149000	0.05884
10724.549000	0.05875
10729.049000	0.05879
10733.449000	0.05877
10737.949000	0.05884
10742.349000	0.05867
10746.949000	0.05870
10751.449000	0.05873
10755.949000	0.05859
10760.549000	0.05857
10765.049000	0.05857
10769.749000	0.05860
10774.349000	0.05847
10778.849000	0.05856
10783.649000	0.05859
10788.249000	0.05851
10792.949000	0.05851
10797.649000	0.05848
10802.349000	0.05857
10807.149000	0.05859
10811.949000	0.05851
10816.649000	0.05855
10821.549000	0.05860
10826.249000	0.05864
10831.149000	0.05848
10836.049000	0.05844
10840.849000	0.05841
10845.849000	0.05846
10850.649000	0.05851
10855.749000	0.05843
10860.549000	0.05844
10865.649000	0.05825
10870.649000	0.05817
10875.449000	0.05815
10880.749000	0.05820
10885.649000	0.05821
10890.749000	0.05823
10895.849000	0.05812
10900.849000	0.05806
10906.049000	0.05791
10911.149000	0.05797
10916.349000	0.05796
10921.549000	0.05804
10926.749000	0.05798
10932.049000	0.05781
10937.049000	0.05780
10942.449000	0.05770
10947.749000	0.05768
10953.049000	0.05764
10958.349000	0.05769
10963.649000	0.05760
10969.049000	0.05762
10974.349000	0.05756
10979.849000	0.05749
10985.149000	0.05754
10990.649000	0.05737
10996.049000	0.05733
11001.449000	0.05738
11007.049000	0.05733
11012.449000	0.05734
11018.049000	0.05728
11023.549000	0.05725
11029.149000	0.05728
11034.749000	0.05724
11040.249000	0.05728
11045.949000	0.05712
11051.549000	0.05711
11057.249000	0.05711
11062.749000	0.05705
11068.549000	0.05708
11074.249000	0.05705
11080.049000	0.05707
11085.749000	0.05704
11091.549000	0.05705
11097.249000	0.05690
11103.049000	0.05684
11108.949000	0.05685
11114.749000	0.05680
11120.649000	0.05674
11126.449000	0.05669
11132.449000	0.05670
11138.249000	0.05673
11144.249000	0.05662
11150.149000	0.05662
11156.149000	0.05659
11162.149000	0.05647
11168.149000	0.05648
11174.249000	0.05648
11180.249000	0.05642
11186.349000	0.05640
11192.349000	0.05638
11198.549000	0.05633
11204.549000	0.05627
11210.849000	0.05634
11216.849000	0.05618
11223.149000	0.05616
11229.249000	0.05612
11235.549000	0.05607
11241.749000	0.05611
11248.049000	0.05614
11254.249000	0.05609
11260.649000	0.05603
11266.849000	0.05594
11273.249000	0.05588
11279.549000	0.05586
11285.949000	0.05587
11292.349000	0.05589
11298.749000	0.05586
11305.149000	0.05583
11311.649000	0.05575
11318.049000	0.05573
11324.549000	0.05571
11331.049000	0.05554
11337.549000	0.05561
11344.149000	0.05540
11350.649000	0.05544
11357.349000	0.05535
11363.849000	0.05524
11370.549000	0.05531
11377.049000	0.05525
11383.849000	0.05517
11390.449000	0.05498
11397.149000	0.05512
11403.849000	0.05497
11410.649000	0.05498
11417.249000	0.05488
11424.149000	0.05491
11430.849000	0.05471
