# XDI/1.0
# Column.1: energy(ev)
# Column.2: fluorescence_emission(au)
# Element.symbol: W
# Element.edge: L3
# Mono.name: Si 2 2 0
# Mono.d_spacing: 1.92
# Beamline.name: FAME
# Sample.name: Pellet of WO3â€¢(H2O) mixed with BN
# Sample.temperature: 10.0 +/- 1.0 K
# Sample.pressure: None
# Citation.doi:  https://doi.org/10.26302/SSHADE/EXPERIMENT_OP_20201209_001
# Citation.comments: Proux, Olivier (2020): W L3 edge XAS transmission and XAS fluorescence of W reference compounds at 10K. SSHADE/FAME (OSUG Data Center). Dataset/Spectral Data. https://doi.org/10.26302/SSHADE/EXPERIMENT_OP_20201209_001Schmitt, Bernard; Bollard, Philippe; Albert, Damien; Garenne, Alexandre; Bonal, Lydie; and the SSHADE partner's consortium (2018). SSHADE: 'Solid Spectroscopy Hosting Architecture of Databases and Expertise'. OSUG Data Center. Service/Database infrastructure. https://doi.org/10.26302/SSHADE
# ////
#---------
# energy(ev)	fluorescence_emission(au)
10052.459000	0.00035
10056.259000	0.00037
10059.359000	0.00038
10062.359000	0.00039
10065.259000	0.00040
10068.459000	0.00041
10071.359000	0.00041
10074.359000	0.00042
10077.359000	0.00043
10080.359000	0.00044
10083.459000	0.00046
10086.359000	0.00047
10089.559000	0.00050
10092.559000	0.00052
10095.559000	0.00052
10098.659000	0.00054
10101.659000	0.00055
10104.659000	0.00058
10107.659000	0.00061
10110.659000	0.00065
10113.659000	0.00067
10116.559000	0.00068
10119.659000	0.00072
10122.559000	0.00075
10125.659000	0.00078
10128.659000	0.00083
10131.659000	0.00087
10134.659000	0.00093
10137.559000	0.00097
10140.659000	0.00102
10143.659000	0.00108
10146.659000	0.00117
10149.659000	0.00125
10152.659000	0.00131
10155.659000	0.00142
10158.559000	0.00154
10161.659000	0.00166
10164.659000	0.00184
10167.659000	0.00200
10168.159000	0.00204
10168.259000	0.00205
10168.559000	0.00208
10168.859000	0.00208
10169.159000	0.00208
10169.459000	0.00211
10169.759000	0.00214
10170.059000	0.00217
10170.359000	0.00222
10170.659000	0.00223
10170.959000	0.00226
10171.259000	0.00227
10171.559000	0.00233
10171.859000	0.00230
10172.159000	0.00234
10172.459000	0.00240
10172.759000	0.00239
10173.059000	0.00243
10173.359000	0.00247
10173.659000	0.00247
10173.959000	0.00249
10174.259000	0.00254
10174.559000	0.00257
10174.859000	0.00261
10175.159000	0.00263
10175.459000	0.00266
10175.759000	0.00270
10176.059000	0.00271
10176.359000	0.00277
10176.659000	0.00282
10176.959000	0.00284
10177.259000	0.00284
10177.559000	0.00290
10177.859000	0.00295
10178.159000	0.00295
10178.459000	0.00300
10178.759000	0.00307
10179.059000	0.00311
10179.359000	0.00314
10179.659000	0.00319
10179.959000	0.00322
10180.259000	0.00330
10180.559000	0.00333
10180.859000	0.00338
10181.159000	0.00345
10181.459000	0.00347
10181.759000	0.00353
10182.059000	0.00359
10182.359000	0.00363
10182.659000	0.00367
10182.959000	0.00373
10183.259000	0.00376
10183.559000	0.00384
10183.859000	0.00391
10184.159000	0.00397
10184.459000	0.00400
10184.759000	0.00412
10185.059000	0.00419
10185.359000	0.00425
10185.659000	0.00434
10185.959000	0.00439
10186.259000	0.00453
10186.559000	0.00457
10186.859000	0.00465
10187.159000	0.00472
10187.459000	0.00484
10187.759000	0.00493
10188.059000	0.00499
10188.359000	0.00508
10188.659000	0.00518
10188.959000	0.00532
10189.259000	0.00539
10189.559000	0.00551
10189.859000	0.00558
10190.159000	0.00569
10190.459000	0.00588
10190.759000	0.00598
10191.059000	0.00610
10191.359000	0.00626
10191.659000	0.00642
10191.959000	0.00650
10192.259000	0.00666
10192.559000	0.00680
10192.859000	0.00697
10193.159000	0.00713
10193.459000	0.00733
10193.759000	0.00750
10194.059000	0.00768
10194.359000	0.00785
10194.659000	0.00806
10194.959000	0.00826
10195.259000	0.00851
10195.559000	0.00878
10195.859000	0.00896
10196.159000	0.00925
10196.459000	0.00955
10196.759000	0.00981
10197.059000	0.01009
10197.359000	0.01038
10197.659000	0.01065
10197.959000	0.01105
10198.259000	0.01130
10198.559000	0.01174
10198.859000	0.01214
10199.159000	0.01250
10199.459000	0.01296
10199.759000	0.01343
10200.059000	0.01386
10200.359000	0.01437
10200.659000	0.01494
10200.959000	0.01555
10201.259000	0.01620
10201.559000	0.01686
10201.859000	0.01760
10202.159000	0.01828
10202.459000	0.01910
10202.759000	0.02000
10203.059000	0.02086
10203.359000	0.02180
10203.659000	0.02273
10203.959000	0.02396
10204.259000	0.02516
10204.559000	0.02645
10204.859000	0.02788
10205.159000	0.02954
10205.459000	0.03115
10205.759000	0.03305
10206.059000	0.03494
10206.359000	0.03695
10206.659000	0.03948
10206.959000	0.04203
10207.259000	0.04494
10207.559000	0.04799
10207.859000	0.05152
10208.159000	0.05474
10208.459000	0.05834
10208.759000	0.06221
10209.059000	0.06664
10209.359000	0.07110
10209.659000	0.07570
10209.959000	0.08088
10210.259000	0.08556
10210.559000	0.09042
10210.859000	0.09514
10211.159000	0.09928
10211.459000	0.10260
10211.759000	0.10577
10212.059000	0.10838
10212.359000	0.10995
10212.659000	0.11111
10212.959000	0.11204
10213.259000	0.11245
10213.559000	0.11285
10213.859000	0.11299
10214.159000	0.11247
10214.459000	0.11189
10214.759000	0.11175
10215.059000	0.11198
10215.359000	0.11215
10215.659000	0.11221
10215.959000	0.11129
10216.259000	0.10939
10216.559000	0.10708
10216.859000	0.10454
10217.159000	0.10210
10217.459000	0.09907
10217.759000	0.09592
10218.059000	0.09297
10218.359000	0.08997
10218.659000	0.08749
10218.959000	0.08483
10219.259000	0.08217
10219.759000	0.07816
10219.959000	0.07650
10221.159000	0.06830
10222.059000	0.06405
10222.759000	0.06154
10223.559000	0.05961
10224.359000	0.05859
10225.159000	0.05779
10225.959000	0.05725
10226.759000	0.05693
10227.659000	0.05633
10228.559000	0.05576
10229.459000	0.05515
10230.359000	0.05457
10231.259000	0.05428
10232.259000	0.05385
10233.159000	0.05376
10234.159000	0.05358
10235.259000	0.05310
10236.259000	0.05297
10237.359000	0.05303
10238.359000	0.05302
10239.459000	0.05275
10240.559000	0.05258
10241.659000	0.05253
10242.759000	0.05241
10243.959000	0.05217
10245.159000	0.05185
10246.459000	0.05169
10247.559000	0.05159
10248.859000	0.05164
10250.059000	0.05167
10251.359000	0.05195
10252.659000	0.05238
10253.959000	0.05303
10255.259000	0.05355
10256.659000	0.05422
10258.059000	0.05512
10259.459000	0.05580
10260.759000	0.05654
10262.259000	0.05716
10263.659000	0.05781
10265.159000	0.05823
10266.559000	0.05856
10268.159000	0.05876
10269.659000	0.05884
10271.159000	0.05868
10272.759000	0.05845
10274.359000	0.05816
10275.859000	0.05783
10277.559000	0.05762
10279.159000	0.05746
10280.859000	0.05726
10282.459000	0.05727
10284.259000	0.05729
10285.859000	0.05717
10287.559000	0.05730
10289.359000	0.05713
10291.159000	0.05695
10292.859000	0.05697
10294.759000	0.05678
10296.559000	0.05673
10298.359000	0.05653
10300.259000	0.05640
10302.159000	0.05612
10303.959000	0.05587
10305.959000	0.05590
10307.859000	0.05568
10309.759000	0.05544
10311.859000	0.05555
10313.859000	0.05549
10315.759000	0.05543
10317.859000	0.05548
10319.859000	0.05560
10321.959000	0.05548
10324.059000	0.05539
10326.159000	0.05561
10328.259000	0.05573
10330.359000	0.05606
10332.559000	0.05607
10334.759000	0.05608
10336.959000	0.05635
10339.159000	0.05661
10341.359000	0.05665
10343.659000	0.05699
10345.959000	0.05688
10348.159000	0.05717
10350.559000	0.05725
10352.859000	0.05713
10355.259000	0.05724
10357.559000	0.05743
10359.959000	0.05744
10362.359000	0.05735
10364.759000	0.05753
10367.259000	0.05734
10369.759000	0.05727
10372.259000	0.05723
10374.659000	0.05736
10377.259000	0.05714
10379.759000	0.05735
10382.259000	0.05730
10384.859000	0.05714
10387.459000	0.05717
10390.159000	0.05698
10392.759000	0.05678
10395.459000	0.05676
10398.059000	0.05681
10400.859000	0.05663
10403.459000	0.05663
10406.259000	0.05653
10408.859000	0.05646
10411.759000	0.05662
10414.459000	0.05641
10417.359000	0.05662
10420.059000	0.05657
10422.959000	0.05684
10425.759000	0.05686
10428.759000	0.05669
10431.559000	0.05676
10434.559000	0.05684
10437.459000	0.05686
10440.359000	0.05687
10443.359000	0.05693
10446.359000	0.05685
10449.359000	0.05692
10452.359000	0.05693
10455.459000	0.05697
10458.559000	0.05699
10461.659000	0.05682
10464.659000	0.05681
10467.859000	0.05674
10470.959000	0.05685
10474.159000	0.05704
10477.259000	0.05713
10480.559000	0.05723
10483.759000	0.05720
10486.959000	0.05707
10490.259000	0.05706
10493.459000	0.05692
10496.759000	0.05693
10500.059000	0.05678
10503.459000	0.05690
10506.859000	0.05685
10510.059000	0.05700
10513.559000	0.05678
10516.959000	0.05669
10520.359000	0.05665
10523.859000	0.05660
10527.259000	0.05673
10530.759000	0.05677
10534.259000	0.05678
10537.759000	0.05683
10541.359000	0.05683
10544.859000	0.05687
10548.559000	0.05671
10552.159000	0.05679
10555.659000	0.05691
10559.359000	0.05680
10562.959000	0.05683
10566.559000	0.05676
10570.359000	0.05656
10574.059000	0.05663
10577.759000	0.05652
10581.459000	0.05648
10585.259000	0.05650
10589.059000	0.05648
10592.859000	0.05643
10596.659000	0.05642
10600.459000	0.05659
10604.359000	0.05670
10608.259000	0.05655
10612.159000	0.05636
10616.059000	0.05649
10619.959000	0.05645
10623.959000	0.05658
10627.959000	0.05646
10631.959000	0.05638
10635.859000	0.05631
10639.959000	0.05623
10644.059000	0.05628
10647.959000	0.05624
10652.159000	0.05625
10656.259000	0.05647
10660.259000	0.05637
10664.559000	0.05624
10668.759000	0.05627
10672.759000	0.05632
10677.059000	0.05631
10681.259000	0.05617
10685.459000	0.05626
10689.759000	0.05628
10694.059000	0.05630
10698.359000	0.05641
10702.659000	0.05614
10706.959000	0.05603
10711.359000	0.05603
10715.759000	0.05601
10720.059000	0.05600
10724.559000	0.05599
10728.959000	0.05601
10733.359000	0.05618
10737.859000	0.05595
10742.259000	0.05602
10746.859000	0.05590
10751.359000	0.05603
10755.859000	0.05588
10760.459000	0.05592
10764.959000	0.05582
10769.659000	0.05581
10774.259000	0.05589
10778.759000	0.05576
10783.559000	0.05567
10788.159000	0.05561
10792.859000	0.05560
10797.659000	0.05562
10802.259000	0.05552
10807.059000	0.05548
10811.859000	0.05570
10816.559000	0.05543
10821.459000	0.05554
10826.159000	0.05544
10831.059000	0.05545
10835.959000	0.05543
10840.759000	0.05543
10845.759000	0.05542
10850.559000	0.05541
10855.659000	0.05515
10860.459000	0.05520
10865.559000	0.05520
10870.559000	0.05520
10875.359000	0.05524
10880.659000	0.05520
10885.559000	0.05513
10890.659000	0.05517
10895.759000	0.05502
10900.759000	0.05505
10905.959000	0.05501
10911.059000	0.05507
10916.259000	0.05500
10921.459000	0.05484
10926.659000	0.05492
10931.859000	0.05485
10937.059000	0.05485
10942.459000	0.05472
10947.659000	0.05467
10952.959000	0.05463
10958.259000	0.05477
10963.559000	0.05469
10968.959000	0.05451
10974.159000	0.05459
10979.759000	0.05446
10985.059000	0.05440
10990.559000	0.05440
10995.959000	0.05434
11001.359000	0.05419
11006.959000	0.05420
11012.359000	0.05425
11017.959000	0.05415
11023.459000	0.05417
11029.059000	0.05407
11034.559000	0.05402
11040.159000	0.05414
11045.859000	0.05420
11051.459000	0.05398
11057.159000	0.05401
11062.659000	0.05386
11068.459000	0.05377
11074.159000	0.05381
11079.959000	0.05373
11085.659000	0.05373
11091.359000	0.05381
11097.159000	0.05373
11102.959000	0.05376
11108.859000	0.05363
11114.659000	0.05373
11120.559000	0.05362
11126.259000	0.05369
11132.359000	0.05353
11138.159000	0.05356
11144.159000	0.05353
11150.059000	0.05335
11156.059000	0.05338
11162.059000	0.05330
11168.059000	0.05335
11174.159000	0.05324
11180.159000	0.05318
11186.259000	0.05311
11192.259000	0.05307
11198.459000	0.05313
11204.459000	0.05301
11210.759000	0.05307
11216.759000	0.05297
11223.059000	0.05302
11229.159000	0.05309
11235.459000	0.05292
11241.659000	0.05295
11247.959000	0.05281
11254.159000	0.05280
11260.559000	0.05259
11266.759000	0.05253
11273.159000	0.05263
11279.459000	0.05257
11285.859000	0.05256
11292.259000	0.05251
11298.659000	0.05224
11305.059000	0.05238
11311.459000	0.05232
11317.959000	0.05230
11324.459000	0.05226
11330.959000	0.05229
11337.459000	0.05215
11344.059000	0.05213
11350.559000	0.05198
11357.159000	0.05198
11363.759000	0.05184
11370.459000	0.05189
11376.959000	0.05176
11383.759000	0.05164
11390.359000	0.05159
11397.059000	0.05148
11403.759000	0.05154
11410.559000	0.05155
11417.159000	0.05139
11424.059000	0.05127
11430.759000	0.05116
