# XDI/1.0
# Column.1: energy(ev)
# Column.2: fluorescence_emission(au)
# Element.symbol: Zn
# Element.edge: K
# Mono.name: Si 2 2 0
# Mono.d_spacing: 1.92
# Beamline.name: FAME
# Sample.name: Frozen solution of aqueous Zn(Cysteine)4
# Sample.temperature: 10.0 +/- 5.0 K
# Sample.pressure: None
# Citation.doi:  https://doi.org/10.26302/SSHADE/EXPERIMENT_ST_20180418_001
# Citation.comments: Thomas, Sara; Mishra, Bhoopesh (2018): Zn K edge XAS HERFD of Zn compounds at 10K for coordination determination in complex biological systems. SSHADE/FAME (OSUG Data Center). Dataset/Spectral Data. https://doi.org/10.26302/SSHADE/EXPERIMENT_ST_20180418_001Schmitt, Bernard; Bollard, Philippe; Albert, Damien; Garenne, Alexandre; Bonal, Lydie; and the SSHADE partner's consortium (2018). SSHADE: 'Solid Spectroscopy Hosting Architecture of Databases and Expertise'. OSUG Data Center. Service/Database infrastructure. https://doi.org/10.26302/SSHADE
# ////
#---------
# energy(ev)	fluorescence_emission(au)
9598.230360	1.65540
9604.399680	1.75693
9609.700200	1.61916
9614.839550	1.55035
9619.879720	1.54527
9625.069620	1.54356
9629.949570	1.54437
9630.579950	1.58847
9631.019590	1.56079
9631.560330	1.52043
9632.069590	1.45024
9632.550240	1.51708
9633.060460	1.48708
9633.540150	1.46143
9634.099960	1.48592
9634.539600	1.52319
9635.060310	1.37789
9635.560040	1.47131
9636.050220	1.55040
9636.569980	1.51279
9637.069700	1.54928
9637.610440	1.45553
9637.999530	1.47022
9638.549800	1.49469
9639.089580	1.46002
9639.590260	1.46919
9640.080450	1.50324
9640.560150	1.53967
9641.099930	1.46362
9641.559600	1.50932
9642.060280	1.54524
9642.560010	1.55683
9643.059730	1.56255
9643.569950	1.54776
9644.140240	1.51910
9644.539830	1.56189
9645.050050	1.54547
9645.560260	1.54526
9646.089550	1.54846
9646.570210	1.53437
9647.060390	1.58358
9647.620200	1.50396
9648.030280	1.47552
9648.579600	1.61560
9649.100300	1.59363
9649.589540	1.65432
9650.059700	1.59807
9650.580410	1.75270
9651.120190	1.74329
9651.539800	1.80345
9652.059560	1.86758
9652.560230	2.01572
9653.070450	2.14967
9653.590200	2.33864
9654.080390	2.63582
9654.609680	3.14643
9655.019760	3.70336
9655.570030	4.65139
9656.089780	5.93007
9656.559940	7.67969
9657.070160	10.93616
9657.569890	15.49332
9658.149720	24.33484
9658.559800	36.06888
9659.059520	66.93593
9659.580230	168.07544
9660.090450	477.70739
9660.590170	1172.50007
9661.100390	2307.30456
9661.540030	3482.02013
9662.059780	4209.01855
9662.579540	4385.50513
9663.089750	4421.11132
9663.590430	4350.72465
9664.059640	4128.90823
9664.600370	3818.50044
9665.049550	3545.08450
9665.570260	3332.07870
9666.069980	3226.73360
9666.569710	3214.71703
9667.059900	3262.57170
9667.619710	3348.38008
9668.120380	3420.80613
9668.569560	3472.42809
9669.050220	3496.04311
9669.590000	3479.20837
9670.100210	3432.78770
9670.570370	3373.89807
9671.050070	3300.44556
9671.640400	3229.40528
9672.030450	3171.86715
9672.570230	3107.22064
9673.080440	3050.14667
9673.580170	3008.42486
9674.059870	2975.20264
9674.579620	2944.49320
9675.100330	2927.94589
9675.550460	2916.27567
9676.070210	2908.87616
9676.569940	2902.81944
9677.080150	2905.93517
9677.619930	2906.84920
9678.130150	2908.76925
9678.520200	2905.91806
9679.089550	2911.05708
9679.599760	2908.68685
9680.080410	2909.78822
9680.560110	2908.35042
9681.059840	2903.99234
9681.610110	2906.03659
9682.069780	2899.97250
9682.579990	2886.26993
9683.070180	2880.23319
9683.560370	2880.57377
9684.089660	2875.39323
9684.590340	2874.17038
9685.099600	2866.86401
9685.540200	2864.13667
9686.070440	2849.61892
9686.610220	2837.42511
9687.109950	2818.65979
9687.589650	2811.27372
9688.070300	2790.81234
9688.639640	2770.33396
9689.049720	2755.15591
9689.570430	2732.73857
9690.070150	2711.03776
9690.569880	2690.05073
9691.080090	2670.77210
9691.590310	2648.02546
9692.119600	2634.49834
9692.549710	2610.15030
9693.090440	2595.74297
9693.539620	2575.52358
9694.080350	2555.56066
9694.580080	2544.63109
9695.050240	2529.73623
9695.610050	2516.78041
9696.080210	2506.23602
9696.599960	2498.77735
9697.099690	2491.04403
9697.569850	2489.70374
9698.080060	2488.91218
9698.590280	2480.61601
9699.130060	2481.58418
9699.540140	2488.99175
9700.059890	2494.05546
9701.290130	2507.50212
9703.869820	2564.90206
9705.240250	2606.13200
9706.629750	2649.61950
9707.859990	2684.07105
9709.289550	2729.49846
9710.590360	2770.03148
9712.019920	2814.13383
9713.549610	2846.13585
9714.810370	2877.72665
9716.449740	2906.90667
9717.829700	2930.41284
9719.369890	2948.16063
9720.879550	2959.83554
9722.379680	2972.59083
9723.999980	2974.88938
9725.509640	2974.95041
9727.149960	2976.27120
9728.719710	2968.08894
9730.449680	2956.74260
9731.920240	2948.32614
9733.659740	2913.88836
9735.400200	2883.89408
9737.150190	2842.47131
9738.739970	2805.71259
9740.590100	2754.00592
9742.259980	2715.15702
9744.070050	2671.74283
9745.909690	2637.20777
9747.799870	2609.94164
9749.460220	2587.88552
9751.409530	2575.48119
9753.230090	2567.64016
9755.290030	2570.97050
9757.029530	2578.45790
9758.990290	2591.38076
9760.950090	2609.09974
9762.999530	2621.62177
9764.920230	2640.99493
9766.920090	2660.56458
9768.989560	2681.29374
9770.959850	2699.04409
9773.099900	2717.91154
9775.139810	2735.39434
9777.299880	2757.96178
9779.359820	2770.56658
9781.470300	2784.53114
9783.699990	2797.93470
9785.929680	2799.90916
9787.960050	2800.24982
9790.309910	2801.07898
9792.409900	2796.77013
9794.799800	2791.56859
9797.039990	2780.52782
9799.320220	2767.38725
9801.580430	2753.82105
9804.019930	2734.73367
9806.260110	2716.92405
9808.719640	2701.28330
9810.930250	2686.51040
9813.480380	2668.67376
9815.970420	2652.67329
9818.220140	2642.03631
9820.759770	2627.51896
9823.329930	2618.02911
9825.699810	2613.20367
9828.289990	2605.18650
9830.750470	2609.10093
9833.450320	2606.61616
9835.889820	2606.60072
9838.529590	2609.07259
9841.159820	2614.00866
9843.770030	2619.57715
9846.409800	2623.13090
9849.100110	2630.33136
9851.750370	2642.64856
9854.610440	2645.30004
9857.130050	2647.55851
9860.019680	2654.40806
9862.689970	2656.92265
9865.590100	2655.62732
9868.350030	2656.86665
9870.960240	2661.95415
9874.010090	2659.23816
9876.930240	2654.91491
9879.639630	2651.40482
9882.599830	2648.65661
9885.549550	2639.97495
9888.500210	2627.33694
9891.309740	2625.24807
9894.459720	2620.53929
9897.350310	2609.46183
9900.340080	2603.63411
9903.459550	2593.55360
9906.470300	2586.66391
9909.549710	2578.88001
9912.509920	2569.44044
9915.740010	2563.91646
9918.769840	2562.52052
9922.069550	2556.85226
9925.109860	2556.84552
9928.290370	2553.70396
9931.440350	2545.69227
9934.860230	2544.28067
9937.919620	2547.15788
9941.149710	2550.80945
9944.499970	2546.19294
9947.790150	2552.59574
9951.160430	2553.89712
9954.319950	2554.66125
9957.719800	2553.94434
9961.130140	2559.78318
9964.590070	2556.69273
9967.909810	2555.11039
9971.209530	2550.93644
9974.889760	2547.16497
9978.110310	2545.41868
9981.599810	2543.09283
9985.340120	2534.40605
9988.659860	2532.10530
9992.079730	2530.60516
9995.940210	2524.65673
9999.250410	2521.31179
10002.900100	2510.65680
10006.699600	2509.11946
10010.100400	2504.10074
10013.899800	2494.73945
10017.600100	2492.50919
10021.100000	2488.63561
10024.999600	2486.12641
10028.599700	2477.08731
10032.300000	2473.02465
10036.199600	2470.96275
10039.799700	2471.42129
10043.700200	2466.50610
10047.599800	2468.08453
10051.300000	2461.15635
10055.199600	2463.39880
10059.100200	2461.17341
10063.099900	2457.03854
10066.800100	2457.97640
10070.900000	2456.94961
10074.799500	2453.52127
10078.800200	2452.22362
10082.699800	2449.31899
10086.899800	2447.21065
10090.700100	2442.58105
10094.900100	2437.85785
10098.899800	2438.36580
10102.899600	2439.21678
10107.199700	2428.64265
10111.100200	2425.25437
10115.400300	2421.39787
10119.600300	2421.49171
10123.600000	2417.07503
10127.900100	2414.25911
10132.200200	2409.35280
10136.300100	2402.89616
10140.700300	2402.31223
10144.800200	2398.86219
10149.200400	2398.97847
10153.599700	2390.36090
10157.799700	2389.29116
10162.200000	2387.14100
10166.500100	2385.75135
10170.900300	2385.76914
10175.399800	2382.90441
10179.699900	2378.09642
10184.399600	2374.24905
10188.699700	2373.52293
10193.100000	2375.11139
10197.600400	2371.46811
10202.300100	2371.29806
10206.600200	2370.85889
10211.199800	2367.11007
10215.900400	2363.79688
10220.399900	2361.31939
10225.000400	2355.32255
10229.700100	2352.81579
10234.199500	2344.20430
10239.199600	2348.82083
10243.499800	2346.89423
