# XDI/1.0
# Column.1: energy(ev)
# Column.2: fluorescence_emission(au)
# Element.symbol: Zn
# Element.edge: K
# Mono.name: Si 2 2 0
# Mono.d_spacing: 1.92
# Beamline.name: FAME
# Sample.name: Pellet of Zn diethyldithiocarbamate mixed with BN
# Sample.temperature: 10.0 +/- 5.0 K
# Sample.pressure: None
# Citation.doi:  https://doi.org/10.26302/SSHADE/EXPERIMENT_ST_20180418_001
# Citation.comments: Thomas, Sara; Mishra, Bhoopesh (2018): Zn K edge XAS HERFD of Zn compounds at 10K for coordination determination in complex biological systems. SSHADE/FAME (OSUG Data Center). Dataset/Spectral Data. https://doi.org/10.26302/SSHADE/EXPERIMENT_ST_20180418_001Schmitt, Bernard; Bollard, Philippe; Albert, Damien; Garenne, Alexandre; Bonal, Lydie; and the SSHADE partner's consortium (2018). SSHADE: 'Solid Spectroscopy Hosting Architecture of Databases and Expertise'. OSUG Data Center. Service/Database infrastructure. https://doi.org/10.26302/SSHADE
# ////
#---------
# energy(ev)	fluorescence_emission(au)
9512.160000	2.96321
9512.660000	2.96070
9513.160000	2.95818
9513.660000	2.95567
9514.160000	2.95315
9514.660000	2.95064
9515.160000	2.94812
9515.660000	2.94561
9516.160000	2.94309
9516.660000	2.94058
9517.160000	2.93806
9517.660000	2.93555
9518.160000	2.93304
9518.660000	2.93052
9519.160000	2.92801
9519.660000	2.92549
9520.160000	2.92298
9520.660000	2.92046
9521.160000	2.91795
9521.660000	2.91543
9522.160000	2.91292
9522.660000	2.91040
9523.160000	2.90789
9523.660000	2.90537
9524.160000	2.90286
9524.660000	2.90034
9525.160000	2.89783
9525.660000	2.89531
9526.160000	2.89280
9526.660000	2.89028
9527.160000	2.88777
9527.660000	2.88526
9528.160000	2.88274
9528.660000	2.88023
9529.160000	2.87771
9529.660000	2.87520
9530.160000	2.87268
9530.660000	2.87017
9531.160000	2.86765
9531.660000	2.86514
9532.160000	2.86262
9532.660000	2.86011
9533.160000	2.85759
9533.660000	2.85508
9534.160000	2.85256
9534.660000	2.85005
9535.160000	2.84753
9535.660000	2.84502
9536.160000	2.84251
9536.660000	2.83999
9537.160000	2.83748
9537.660000	2.83496
9538.160000	2.83245
9538.660000	2.82993
9539.160000	2.82742
9539.660000	2.82490
9540.160000	2.82239
9540.660000	2.81987
9541.160000	2.81736
9541.660000	2.81484
9542.160000	2.81233
9542.660000	2.80981
9543.160000	2.80730
9543.660000	2.80478
9544.160000	2.80227
9544.660000	2.79975
9545.160000	2.79724
9545.660000	2.79473
9546.160000	2.79221
9546.660000	2.78970
9547.160000	2.78718
9547.660000	2.78467
9548.160000	2.78215
9548.660000	2.77964
9549.160000	2.77712
9549.660000	2.77461
9550.160000	2.77209
9550.660000	2.76958
9551.160000	2.76706
9551.660000	2.76455
9552.160000	2.76203
9552.660000	2.75952
9553.160000	2.75700
9553.660000	2.75449
9554.160000	2.75197
9554.660000	2.74946
9555.160000	2.74695
9555.660000	2.74443
9556.160000	2.74192
9556.660000	2.73940
9557.160000	2.73689
9557.660000	2.73437
9558.160000	2.73186
9558.660000	2.72934
9559.160000	2.72683
9559.660000	2.72431
9560.160000	2.72180
9560.660000	2.71928
9561.160000	2.71677
9561.660000	2.71425
9562.160000	2.71174
9562.660000	2.70922
9563.160000	2.70671
9563.660000	2.70419
9564.160000	2.70168
9564.660000	2.69917
9565.160000	2.69665
9565.660000	2.69414
9566.160000	2.69162
9566.660000	2.68911
9567.160000	2.68659
9567.660000	2.68408
9568.160000	2.68156
9568.660000	2.67905
9569.160000	2.67653
9569.660000	2.67402
9570.160000	2.67150
9570.660000	2.66899
9571.160000	2.66647
9571.660000	2.66396
9572.160000	2.66144
9572.660000	2.65893
9573.160000	2.65641
9573.660000	2.65390
9574.160000	2.65139
9574.660000	2.64887
9575.160000	2.64636
9575.660000	2.64384
9576.160000	2.64133
9576.660000	2.63881
9577.160000	2.63630
9577.660000	2.63378
9578.160000	2.63127
9578.660000	2.62875
9579.160000	2.62624
9579.660000	2.62372
9580.160000	2.62121
9580.660000	2.61869
9581.160000	2.61618
9581.660000	2.61366
9582.160000	2.61115
9582.660000	2.60864
9583.160000	2.60612
9583.660000	2.60361
9584.160000	2.60109
9584.660000	2.59858
9585.160000	2.59606
9585.660000	2.59355
9586.160000	2.59103
9586.660000	2.58852
9587.160000	2.58600
9587.660000	2.58349
9588.160000	2.58097
9588.660000	2.57846
9589.160000	2.57594
9589.660000	2.57343
9590.160000	2.57091
9590.660000	2.56840
9591.160000	2.56588
9591.660000	2.56337
9592.160000	2.56086
9592.660000	2.55834
9593.160000	2.55583
9593.660000	2.55331
9594.160000	2.55080
9594.660000	2.54828
9595.160000	2.54577
9595.660000	2.54325
9596.160000	2.54074
9596.660000	2.53822
9597.160000	2.53571
9597.660000	2.53319
9598.160000	2.53068
9598.660000	2.52816
9599.160000	2.52565
9599.660000	2.52313
9600.160000	2.52062
9600.660000	2.51810
9601.160000	2.51559
9601.660000	2.51308
9602.160000	2.51056
9602.660000	2.50805
9603.160000	2.50553
9603.660000	2.50302
9604.160000	2.50050
9604.660000	2.49799
9605.160000	2.49547
9605.660000	2.49296
9606.160000	2.49044
9606.660000	2.48793
9607.160000	2.48541
9607.660000	2.48290
9608.160000	2.48038
9608.660000	2.47787
9609.160000	2.47575
9609.660000	2.47446
9610.160000	2.47360
9610.660000	2.47285
9611.160000	2.47211
9611.660000	2.47136
9612.160000	2.47061
9612.660000	2.46986
9613.160000	2.46911
9613.660000	2.46836
9614.160000	2.46672
9614.660000	2.46228
9615.160000	2.45533
9615.660000	2.44793
9616.160000	2.44052
9616.660000	2.43312
9617.160000	2.42572
9617.660000	2.41831
9618.160000	2.41091
9618.660000	2.40351
9619.160000	2.39629
9619.660000	2.38990
9620.160000	2.38451
9620.660000	2.37944
9621.160000	2.37437
9621.660000	2.36929
9622.160000	2.36422
9622.660000	2.35914
9623.160000	2.35407
9623.660000	2.34900
9624.160000	2.34414
9624.660000	2.33977
9625.160000	2.33543
9625.660000	2.33077
9626.160000	2.32612
9626.660000	2.32146
9627.160000	2.31680
9627.660000	2.31214
9628.160000	2.30749
9628.660000	2.30283
9629.160000	2.29983
9629.660000	2.30611
9630.160000	2.31353
9630.660000	2.30697
9631.160000	2.31320
9631.660000	2.35166
9632.160000	2.39752
9632.660000	2.40434
9633.160000	2.38053
9633.660000	2.37460
9634.160000	2.38216
9634.660000	2.39859
9635.160000	2.42124
9635.660000	2.41224
9636.160000	2.37162
9636.660000	2.33108
9637.160000	2.34951
9637.660000	2.38291
9638.160000	2.40346
9638.660000	2.39776
9639.160000	2.38386
9639.660000	2.35917
9640.160000	2.38597
9640.660000	2.43899
9641.160000	2.45736
9641.660000	2.42049
9642.160000	2.37830
9642.660000	2.38089
9643.160000	2.39730
9643.660000	2.40157
9644.160000	2.40396
9644.660000	2.41685
9645.160000	2.44025
9645.660000	2.47415
9646.160000	2.49423
9646.660000	2.52373
9647.160000	2.55448
9647.660000	2.59504
9648.160000	2.65297
9648.660000	2.72168
9649.160000	2.79055
9649.660000	2.86570
9650.160000	2.94597
9650.660000	3.07410
9651.160000	3.23071
9651.660000	3.43156
9652.160000	3.71717
9652.660000	4.11481
9653.160000	4.65994
9653.660000	5.37660
9654.160000	6.38089
9654.660000	7.78613
9655.160000	9.78930
9655.660000	13.01717
9656.160000	18.26084
9656.660000	26.61192
9657.160000	39.71106
9657.660000	65.53929
9658.160000	134.25534
9658.660000	322.98065
9659.160000	753.87727
9659.660000	1521.89850
9660.160000	2663.10500
9660.660000	4407.90800
9661.160000	6837.52500
9661.660000	9347.76200
9662.160000	11283.58800
9662.660000	12162.44800
9663.160000	12080.71000
9663.660000	11476.73900
9664.160000	10656.18800
9664.660000	9747.00610
9665.160000	8987.57330
9665.660000	8451.07780
9666.160000	8112.09600
9666.660000	7892.95990
9667.160000	7751.77820
9667.660000	7710.28730
9668.160000	7779.78670
9668.660000	7928.07040
9669.160000	8081.58740
9669.660000	8177.95530
9670.160000	8178.55450
9670.660000	8093.14350
9671.160000	7953.72630
9671.660000	7801.39970
9672.160000	7675.18470
9672.660000	7576.64510
9673.160000	7499.05590
9673.660000	7429.95710
9674.160000	7355.65300
9674.660000	7265.85870
9675.160000	7160.65100
9675.660000	7058.05660
9676.160000	6966.58900
9676.660000	6900.66120
9677.160000	6867.53980
9677.660000	6869.85410
9678.160000	6897.06690
9678.660000	6937.21690
9679.160000	6991.06640
9679.660000	7058.97920
9680.160000	7131.88360
9680.660000	7198.46190
9681.160000	7262.07220
9681.660000	7324.42350
9682.160000	7370.46860
9682.660000	7394.82600
9683.160000	7395.77890
9683.660000	7378.07030
9684.160000	7344.16620
9684.660000	7292.46260
9685.160000	7228.97090
9685.660000	7164.56920
9686.160000	7102.60400
9686.660000	7038.81780
9687.160000	6971.19470
9687.660000	6905.54110
9688.160000	6846.13710
9688.660000	6786.45370
9689.160000	6727.82800
9689.660000	6668.28130
9690.160000	6614.07400
9690.660000	6563.64930
9691.160000	6516.08770
9691.660000	6469.74490
9692.160000	6425.61240
9692.660000	6387.86280
9693.160000	6351.54700
9693.660000	6316.63900
9694.160000	6285.09890
9694.660000	6259.14510
9695.160000	6238.63700
9695.660000	6219.58570
9696.160000	6202.76800
9696.660000	6188.43240
9697.160000	6180.74000
9697.660000	6176.98740
9698.160000	6177.05740
9698.660000	6179.59650
9699.160000	6194.49970
9699.660000	6221.79420
9700.160000	6252.95450
9700.660000	6282.16040
9701.160000	6306.10620
9701.660000	6326.55250
9702.160000	6346.55610
9702.660000	6366.55960
9703.160000	6389.25200
9703.660000	6421.59760
9704.160000	6463.14460
9704.660000	6503.83130
9705.160000	6540.48200
9705.660000	6575.52690
9706.160000	6611.88540
9706.660000	6650.77890
9707.160000	6689.47280
9707.660000	6725.85800
9708.160000	6760.30100
9708.660000	6794.90040
9709.160000	6830.35500
9709.660000	6866.31170
9710.160000	6900.94090
9710.660000	6933.26730
9711.160000	6965.16660
9711.660000	6997.14830
9712.160000	7029.21050
9712.660000	7061.15040
9713.160000	7093.02680
9713.660000	7124.87750
9714.160000	7155.57510
9714.660000	7182.73150
9715.160000	7206.94650
9715.660000	7230.58230
9716.160000	7253.40580
9716.660000	7275.24780
9717.160000	7295.62070
9717.660000	7312.20470
9718.160000	7325.86260
9718.660000	7338.49780
9719.160000	7348.97980
9719.660000	7357.50370
9720.160000	7365.37400
9720.660000	7371.93120
9721.160000	7377.31580
9721.660000	7381.87100
9722.160000	7384.00930
9722.660000	7383.76970
9723.160000	7382.70060
9723.660000	7379.44940
9724.160000	7373.60050
9724.660000	7367.35080
9725.160000	7358.89160
9725.660000	7346.86400
9726.160000	7334.33600
9726.660000	7321.08380
9727.160000	7306.51290
9727.660000	7291.57740
9728.160000	7276.24190
9728.660000	7260.05000
9729.160000	7243.36960
9729.660000	7226.43890
9730.160000	7208.90990
9730.660000	7190.79880
9731.160000	7172.52210
9731.660000	7153.95580
9732.160000	7134.99080
9732.660000	7115.92600
9733.160000	7096.39860
9733.660000	7075.98600
9734.160000	7055.26980
9734.660000	7034.10110
9735.160000	7011.32240
9735.660000	6986.92900
9736.160000	6962.29330
9736.660000	6936.67560
9737.160000	6909.28740
9737.660000	6881.42550
9738.160000	6853.84620
9738.660000	6826.97810
9739.160000	6800.46940
9739.660000	6773.99860
9740.160000	6747.12900
9740.660000	6719.66330
9741.160000	6692.21850
9741.660000	6665.30050
9742.160000	6639.61050
9742.660000	6614.59580
9743.160000	6589.60880
9743.660000	6565.66020
9744.160000	6543.57030
9744.660000	6521.94620
9745.160000	6501.10250
9745.660000	6483.14330
9746.160000	6468.05290
9746.660000	6453.33740
9747.160000	6439.22000
9747.660000	6426.46020
9748.160000	6414.46180
9748.660000	6402.74610
9749.160000	6393.38880
9749.660000	6387.50570
9750.160000	6382.12450
9750.660000	6377.23860
9751.160000	6374.25530
9751.660000	6373.18420
9752.160000	6372.37240
9752.660000	6372.92590
9753.160000	6376.45610
9753.660000	6381.50730
9754.160000	6386.75070
9754.660000	6392.93940
9755.160000	6401.14350
9755.660000	6410.31190
9756.160000	6419.58270
9756.660000	6429.06740
9757.160000	6438.97710
9757.660000	6449.04860
9758.160000	6459.14680
9758.660000	6469.48530
9759.160000	6480.19460
9759.660000	6490.98160
9760.160000	6501.81530
9760.660000	6512.83800
9761.160000	6524.03740
9763.121400	6568.45800
9765.101900	6617.41150
9767.101500	6668.31140
9769.120100	6720.24290
9771.157700	6772.20360
9773.214400	6819.71030
9775.290100	6859.18850
9777.384900	6888.76560
9779.498800	6913.05810
9781.631700	6932.64180
9783.783600	6943.02410
9785.954600	6941.55550
9788.144700	6930.67120
9790.353700	6913.76530
9792.581900	6889.36020
9794.829100	6857.09310
9797.095300	6815.27640
9799.380600	6767.83100
9801.685000	6719.73820
9804.008300	6673.53160
9806.350800	6631.50990
9808.712300	6590.80740
9811.092800	6554.77740
9813.492400	6522.27960
9815.911100	6494.31670
9818.348700	6473.78750
9820.805500	6459.48920
9823.281300	6451.15020
9825.776100	6445.34230
9828.290000	6444.40280
9830.822900	6451.14120
9833.374900	6462.40720
9835.946000	6478.06610
9838.536100	6493.50750
9841.145200	6507.63780
9843.773400	6518.91620
9846.420600	6530.65740
9849.086900	6543.18190
9851.772300	6556.85300
9854.476700	6569.19010
9857.200100	6581.54240
9859.942600	6589.96640
9862.704100	6592.64580
9865.484700	6589.88400
9868.284400	6583.22150
9871.103000	6572.64400
9873.940800	6557.15010
9876.797600	6535.36570
9879.673400	6512.02400
9882.568300	6488.92250
9885.482200	6466.16930
9888.415200	6443.09460
9891.367300	6417.13300
9894.338400	6393.40060
9897.328500	6373.04160
9900.337700	6357.02860
9903.365900	6342.93890
9906.413200	6329.08170
9909.479600	6318.85370
9912.564900	6309.86520
9915.669400	6302.01010
9918.792900	6295.91390
9921.935400	6293.66290
9925.097000	6294.56820
9928.277600	6297.78190
9931.477300	6301.09880
9934.696100	6301.43990
9937.933800	6299.20710
9941.190700	6299.05400
9944.466600	6299.47450
9947.761500	6299.22420
9951.075500	6294.21100
9954.408500	6290.00800
9957.760600	6288.01530
9961.131800	6285.24000
9964.521900	6282.33710
9967.931200	6273.84140
9971.359500	6264.56160
9974.806800	6252.68550
9978.273200	6240.65650
9981.758600	6227.59910
9985.263100	6215.62010
9988.786600	6202.33430
9992.329200	6187.03970
9995.890900	6168.95330
9999.471600	6153.17390
10003.071000	6140.94770
10006.690000	6130.42610
10010.328000	6120.18610
10013.985000	6108.70440
10017.661000	6098.18140
10021.356000	6089.71730
10025.070000	6086.05210
10028.803000	6083.70160
10032.555000	6079.58080
10036.326000	6075.68330
10040.116000	6073.15210
10043.926000	6071.14100
10047.754000	6065.58070
10051.601000	6059.15710
10055.468000	6052.74810
10059.353000	6049.75010
10063.258000	6046.56200
10067.181000	6042.77210
10071.124000	6036.45200
10075.086000	6029.42890
10079.066000	6025.49360
10083.066000	6019.80480
10087.085000	6011.71400
10091.123000	5999.27120
10095.180000	5990.02210
10099.256000	5983.73620
10103.351000	5975.85890
10107.465000	5963.22310
10111.598000	5948.18610
10115.750000	5936.33320
10119.922000	5927.53240
10124.112000	5920.44030
10128.321000	5911.80580
10132.550000	5901.16150
10136.797000	5890.33070
10141.064000	5880.19980
10145.349000	5871.06610
10149.654000	5862.30430
10153.977000	5855.46240
10158.320000	5850.12810
10162.682000	5845.09710
10167.062000	5838.43110
10171.462000	5830.48960
10175.881000	5823.54200
10180.319000	5818.01770
10184.776000	5814.66440
10189.252000	5811.02870
10193.747000	5807.13000
10198.261000	5804.24360
10202.795000	5804.00030
10207.347000	5803.30000
10211.918000	5795.16990
10216.508000	5779.79410
10221.118000	5761.40280
10225.746000	5747.88380
10230.394000	5739.40150
10235.060000	5735.92480
10239.746000	5733.90000
10244.450000	5728.53560
10249.174000	5720.26520
10253.917000	5711.24980
10258.679000	5702.64300
10263.459000	5693.12870
10268.259000	5682.53480
10273.078000	5673.89050
10277.916000	5665.67200
10282.773000	5659.56650
10287.649000	5653.68140
10292.544000	5648.72640
10297.459000	5642.43620
10302.392000	5635.37080
10307.344000	5630.74320
10312.315000	5627.78490
10317.306000	5622.44210
10322.315000	5611.45070
10327.344000	5598.90090
10332.391000	5586.35850
10337.458000	5577.53310
10342.544000	5570.74370
10347.648000	5567.17560
10352.772000	5562.30540
10357.915000	5555.02080
10363.077000	5546.62180
10368.257000	5538.73260
10373.457000	5532.02520
10378.676000	5524.35110
10383.914000	5515.92940
10389.171000	5506.50300
10394.448000	5498.01610
10399.743000	5489.02100
